#   1 NUMBER                 Running object number                                     
#   2 X_IMAGE                Object position along x                                    [pixel]
#   3 Y_IMAGE                Object position along y                                    [pixel]
#   4 A_IMAGE                Profile RMS along major axis                               [pixel]
#   5 B_IMAGE                Profile RMS along minor axis                               [pixel]
#   6 THETA_IMAGE            Position angle (CCW/x)                                     [deg]
         1    927.219     72.133     9.494     1.265 -46.7
         2   1067.235     66.487     8.572     5.677 -66.9
         3   1526.424     43.133     3.525     0.492 -89.3
         4    738.586     29.889     7.859     1.063  56.0
         5   1326.306     31.549     3.993     0.710  81.9
         6    669.700     24.103    10.066     0.538  28.1
         7   1667.299     10.854     7.771     4.417 -34.6
         8   1437.126     11.160     3.459     1.037 -80.1
         9   1034.707     10.295     2.157     0.935 -14.7
        10   1526.561      6.010     2.297     0.745 -89.1
        11    777.867      5.615     1.386     0.721  79.9
        12   1866.415      1.000   173.149     0.289   0.0
        13    726.999     36.939     2.913     0.575  85.2
        14   1015.857    113.020    13.331     3.340 -63.6
        15    599.369     19.299     0.822     0.694  -7.6
        16    536.327     17.507     0.721     0.645  -1.5
        17     18.499     19.519     3.244     1.031   4.7
        18    699.124     20.127     0.394     0.381  51.3
        19    753.478     17.247     0.500     0.431  -3.1
        20   1499.682     22.904     0.563     0.531 -71.4
        21   1336.907     32.997     0.714     0.708 -15.2
        22   1947.147     88.366     9.927     0.986 -46.6
        23   1538.377     36.380     0.872     0.840  50.2
        24   1702.647     30.118     0.484     0.401   1.0
        25   1347.316     37.113     0.769     0.573 -71.9
        26    989.254     54.890     3.732     1.488 -45.6
        27   1487.006     77.979     5.786     0.513  71.7
        28   1917.651     41.160     0.781     0.689   4.2
        29    924.841     38.508     0.606     0.597 -43.0
        30    368.117    196.070    39.804     2.184  28.1
        31   1740.851    108.584    28.605     2.043  14.7
        32    518.896     43.439     0.497     0.382  86.1
        33    994.461     64.061     2.204     1.646 -48.3
        34   1805.146     54.937     0.666     0.617  52.7
        35    511.073     53.452     0.506     0.463 -85.2
        36   1370.525     63.200     0.783     0.756  78.5
        37    560.205     55.890     0.406     0.310   9.3
        38    259.279     60.001     0.638     0.498  48.2
        39    722.719     66.816     0.642     0.627 -85.1
        40    583.263     68.425     0.696     0.689  81.5
        41    502.939     85.671     2.406     0.648 -69.2
        42     68.408    114.190     7.843     2.220 -34.2
        43   1764.565     74.657     0.724     0.709 -62.7
        44    909.403     73.662     0.491     0.472 -11.9
        45   1748.430     84.311     0.957     0.818 -23.8
        46    805.206    119.519    11.533     0.617  21.2
        47   1351.674     92.934     3.940     0.952  26.3
        48   1620.543     78.390     0.529     0.455 -41.0
        49   1813.464    106.438    11.267     1.863   3.4
        50   1181.446    125.565     8.509     1.105 -28.2
        51    758.787     95.164     3.657     0.812  19.2
        52   1315.426     96.989     0.751     0.742  74.9
        53   1246.679    102.249     1.314     0.750 -85.6
        54     84.734     96.495     0.804     0.659  87.3
        55   1212.508     96.999     0.618     0.593  66.7
        56   1576.317    149.687    27.689     0.563 -11.2
        57    458.174    102.440     0.562     0.539  14.3
        58   1095.712    109.895     5.943     0.512 -10.4
        59   1080.541    107.872     0.824     0.799 -77.4
        60   1563.500    111.933     0.824     0.672  12.3
        61   1969.497    104.364     0.504     0.477  22.9
        62   1064.838    115.603     0.980     0.337  79.8
        63   1089.549    118.570     1.068     0.819  50.9
        64   1645.372    140.712     7.737     0.603  31.1
        65    587.011    121.138     0.912     0.820  -1.0
        66   1837.583    133.675     5.033     1.499 -31.4
        67    984.455    124.556     1.149     0.639 -72.1
        68   1896.479    124.239     1.394     0.447  51.0
        69    270.280    129.640     1.680     0.447  88.4
        70   1702.802    131.649     0.605     0.584  26.0
        71   1316.124    136.443     2.774     0.518   7.7
        72    227.988    131.021     0.416     0.363  89.6
        73   1849.477    153.903     2.504     0.634 -86.6
        74   1679.935    145.965     1.449     1.316 -41.9
        75    862.115    142.629     0.795     0.488 -55.3
        76    363.236    169.963     5.667     1.641  25.3
        77   1200.834    162.021     2.551     0.695 -33.0
        78   1112.626    216.017    10.233     2.617  39.7
        79   1186.815    179.948     4.697     0.772  45.7
        80    295.125    151.903     0.622     0.559   5.6
        81     65.041    194.193    37.443     2.531   3.1
        82    455.165    160.018     2.648     0.311  -1.3
        83    617.612    227.400     8.959     0.970 -67.1
        84    767.704    231.948     8.460     2.143  80.9
        85   1750.871    175.808     0.849     0.647  49.4
        86   1881.612    170.439     0.672     0.644  21.3
        87    681.859    179.478     0.655     0.639 -69.1
        88    764.852    177.048     0.556     0.548 -63.4
        89    892.576    237.846    10.614     3.410 -21.7
        90    331.653    215.039     3.098     0.905 -78.0
        91   1284.111    200.150     2.271     1.248  27.2
        92    817.560    207.881    10.770     0.521 -13.4
        93   1735.857    192.543     0.652     0.639 -16.0
        94   1763.065    229.926    24.510     0.511  11.7
        95   1060.257    197.776     0.698     0.651 -54.5
        96    620.389    195.076     0.559     0.536  74.2
        97    379.294    260.393    12.611     0.676 -32.5
        98    516.604    216.655     0.979     0.544  84.4
        99    758.332    223.063     1.191     0.785  86.0
       100     90.146    252.620    63.139     0.725   3.0
       101   1163.483    813.903    64.769     0.592  89.7
       102   1242.387    224.945     2.717     0.778  17.6
       103    475.862    216.107     0.483     0.352  80.9
       104    668.818    233.228     1.341     0.708  28.4
       105    861.284    279.977     6.101     0.626 -63.3
       106   1854.179    272.178     5.805     3.094 -58.1
       107    178.684    239.958     0.687     0.657  50.4
       108    782.873    240.843     0.892     0.635  59.1
       109    859.350    378.239    41.354     0.560 -23.9
       110   1278.347    247.470    15.813     0.538   3.0
       111   1526.751    242.503     1.170     0.262  72.4
       112   1445.113    239.406     0.491     0.317 -89.1
       113   1873.222    286.682     6.389     0.486  55.3
       114   1155.882    294.323    36.488     1.828   7.8
       115    507.004    248.324     0.523     0.487  81.5
       116    442.724    249.643     3.683     0.426  -3.5
       117    447.179    267.585     2.471     0.596  52.7
       118    997.306    255.950     0.687     0.656  51.3
       119   1194.030    268.867     1.282     1.018  83.8
       120   2027.000    264.320     0.599     0.588 -16.8
       121   1773.962    266.342     0.642     0.571   7.0
       122   1845.499    266.783     0.593     0.314 -39.3
       123    912.535    289.580     3.810     0.851 -35.8
       124    811.203    281.051     5.857     0.522 -14.8
       125    565.078    290.060     2.051     0.863 -59.4
       126   1075.003    285.988     1.193     0.865 -82.7
       127     51.842    276.171     0.520     0.374   7.7
       128    577.201    302.959     4.332     0.506  32.5
       129    188.863    306.730     2.334     0.792  74.7
       130     11.119    282.366     0.514     0.484  71.3
       131   1357.017    379.741    18.079     0.569  29.9
       132    311.087    307.856     3.951     2.750  35.1
       133   1689.709    343.987    10.903     1.224  36.7
       134   1459.866    288.824     0.412     0.328 -68.2
       135    145.911    290.064     0.570     0.456 -61.4
       136    981.514    300.201     0.869     0.594  58.2
       137   1245.842    298.988     0.404     0.365 -86.4
       138    196.266    308.213     1.096     0.595  86.7
       139   1351.336    305.023     0.579     0.447 -31.2
       140   1656.563    310.270     0.656     0.635 -81.2
       141   1257.852    332.394     6.393     1.033  19.3
       142   1323.618    318.492     1.957     0.796 -20.2
       143   1435.726    323.897     1.841     0.615  87.4
       144   2034.846    313.495     0.501     0.383  85.6
       145   1035.598    336.793     1.214     0.756  87.9
       146    355.093    329.403     0.578     0.549  48.5
       147   1050.287    354.508     4.744     0.991 -36.8
       148   1855.037    335.680     0.776     0.756   4.1
       149    186.091    339.085     0.919     0.863 -18.5
       150   1293.370    380.741    10.185     0.916  30.0
       151    156.128    338.437     0.624     0.614 -65.5
       152   1636.956    388.292     7.011     0.320 -79.7
       153     95.317    341.267     0.522     0.487  86.1
       154   1264.606    346.497     0.920     0.643 -80.1
       155   1751.074    349.596     0.491     0.426  89.7
       156      7.679    516.233    16.029     0.914  89.9
       157   1378.182    355.702     0.457     0.386  87.5
       158    126.308    380.910     4.256     0.494 -31.1
       159   1629.417    442.951    25.731     0.525 -19.2
       160    404.037    466.603    15.671     0.555 -44.5
       161    551.101    387.215     1.677     0.581 -81.0
       162   1617.528    401.725     3.368     0.527 -52.2
       163    802.598    380.872     0.525     0.519 -49.8
       164    140.123    400.327     2.264     0.956  32.2
       165   1145.022    391.039     0.424     0.379 -89.6
       166    458.037    396.249     0.565     0.369  57.9
       167   1808.199    403.046     0.472     0.372  60.3
       168   2026.637    488.832    11.272     2.750  62.2
       169    824.559    411.423     0.864     0.747  38.3
       170    928.024    422.130     0.871     0.790  35.4
       171   1257.086    419.770     0.597     0.588 -58.1
       172    946.578    452.830     4.726     1.524 -62.1
       173   1069.084    434.819     1.981     1.321  84.1
       174    831.154    426.019     0.598     0.320  70.8
       175    794.745    427.107     0.533     0.401 -60.9
       176   1039.779    437.725     2.395     0.451 -29.1
       177    511.673    429.944     0.469     0.446   3.3
       178   1538.914    448.903     1.940     0.951  76.3
       179    125.690    436.788     0.599     0.561 -56.1
       180    698.908    446.701     7.598     1.236  -6.4
       181   1601.696    470.721     3.617     0.848 -89.2
       182    788.655    451.667     2.167     1.056  30.4
       183   1587.048    446.721     2.194     0.476  -5.3
       184     79.682    446.242     0.585     0.548 -76.6
       185   1953.663    467.550     3.835     0.488 -64.2
       186    198.111    506.948    11.215     0.562 -40.9
       187   1239.730    470.638     3.249     0.620  24.3
       188   1949.874    521.368     6.323     1.393  89.8
       189    929.817    475.287     3.330     0.815 -23.3
       190    894.110    484.753     3.821     0.630 -35.8
       191   1358.736    475.865     0.892     0.824 -47.1
       192    334.886    472.821     0.402     0.333  88.7
       193   1054.471    481.636     0.819     0.805  35.0
       194   1867.098    497.918     0.865     0.763 -44.9
       195    605.504    492.951     0.563     0.526  26.9
       196   1057.826    503.198     1.954     0.802  -5.6
       197   1045.133    498.408     0.881     0.548  -2.1
       198    150.790    500.018     0.778     0.585   4.0
       199   1618.673    517.834     2.282     1.437  31.8
       200   1312.042    508.322     1.051     0.691  76.6
       201    385.808    571.143    11.126     1.114 -81.6
       202   1646.014    566.530     7.942     1.960  71.6
       203   2036.024    510.799     2.329     0.808  11.6
       204   1339.403    566.842     4.649     1.602  85.7
       205   1221.415    513.301     0.743     0.667 -75.9
       206   1997.089    534.172     2.844     0.657 -59.9
       207   1375.649    526.758     1.760     0.693 -80.9
       208    340.038    516.524     0.829     0.548 -28.4
       209   1253.306    554.416     5.358     0.458 -60.8
       210    712.194    519.594     0.613     0.601  58.0
       211    311.297    530.345     0.953     0.851 -56.9
       212    334.544    525.659     0.756     0.735  59.5
       213    690.895    533.300     0.660     0.646  80.4
       214    779.177    544.806     1.931     0.778  73.2
       215   1723.588    536.775    16.271     0.554  -0.7
       216    425.745    536.453     0.553     0.493  32.8
       217    817.944    550.870     4.807     1.039  -7.9
       218     98.771    538.923     0.420     0.280  -2.1
       219    957.464    560.623     1.362     1.054  31.0
       220    834.681    546.997     0.548     0.529   0.1
       221   1893.404    624.377     9.205     0.773 -76.3
       222    418.578    573.773     8.502     1.661 -11.7
       223    431.785    627.027     9.038     1.355  69.1
       224   1837.376    555.836     0.511     0.504   8.5
       225   1090.619    604.560     6.633     0.646  56.8
       226    894.757    564.750     0.708     0.682 -73.2
       227     11.973    597.026     8.678     0.488 -25.1
       228    885.537    575.529     0.871     0.833   5.7
       229   1253.603    603.772    14.099     0.535 -17.3
       230   1847.112    571.899     0.666     0.561  35.4
       231   1586.572    580.452     0.853     0.801  30.6
       232   1873.684    587.221     2.887     0.767  12.1
       233    896.114    582.632     0.626     0.308  81.8
       234    304.492    582.339     0.505     0.468 -22.3
       235    852.918    604.211     5.541     1.066  25.5
       236     49.674    586.012     0.492     0.367 -27.0
       237   1600.373    614.003     5.269     1.808  56.7
       238    810.557    591.607     0.587     0.572   3.7
       239    508.888    591.358     0.652     0.622 -60.3
       240    289.808    613.835     2.702     0.814 -76.7
       241   2017.948    610.757     8.698     1.740   5.6
       242   1600.166    603.265     2.506     0.589  29.8
       243   1806.824    603.640     1.055     0.779 -43.7
       244   1395.762    602.345     4.399     0.631  -6.1
       245   1369.866    601.063     0.475     0.465  62.7
       246    324.419    598.829     0.494     0.376   2.9
       247    795.133    613.168     4.215     0.652 -14.9
       248   2039.706    607.727     0.743     0.478  89.8
       249    256.117    616.488     1.207     0.875 -88.3
       250    810.502    608.941     1.685     0.270 -20.2
       251   1938.931    607.756     0.430     0.283 -88.0
       252   1251.985    650.035     8.028     2.533  43.8
       253   1563.404    613.668     0.580     0.554  43.7
       254    675.144    620.736     1.179     0.684   1.8
       255    894.397    618.813     0.903     0.388 -63.7
       256   1664.024    615.275     0.532     0.341 -89.0
       257   1296.626    635.333     1.676     1.052  24.4
       258    177.635    624.114     0.625     0.549 -54.7
       259   1969.999    688.639     8.279     1.586 -67.3
       260   1128.497    635.613     2.140     0.991   7.6
       261   1491.173    632.916     0.881     0.622 -80.0
       262    860.509    628.104     0.501     0.451   9.2
       263   1298.748    628.022     0.521     0.324  -1.3
       264   1263.515    630.200     0.509     0.396 -11.0
       265   1546.768    638.143     0.729     0.667  23.5
       266    726.425    647.631     0.914     0.850  45.3
       267    825.853    686.251     6.212     0.611  45.2
       268   1917.750    802.241    18.004     1.304 -73.2
       269    504.574    675.041     2.698     1.245  88.1
       270    204.071    658.789     0.739     0.663  70.1
       271    458.261    656.364     0.624     0.563  64.4
       272   1060.643    651.731     0.510     0.407  34.7
       273     49.040    717.284    14.231     0.534 -31.8
       274    610.195    704.347     6.242     1.105 -86.2
       275   1360.043    655.457     1.226     0.352 -21.9
       276   1224.000    661.478     0.602     0.593  39.3
       277      5.473    677.519     2.806     1.788  43.1
       278   1652.433    667.913     0.648     0.632 -74.6
       279   1282.161    668.017     0.468     0.338   0.9
       280   1327.288    711.336    10.920     2.895   6.6
       281    846.117    701.298     5.480     1.855 -51.8
       282    801.168    702.079     7.785     1.048  26.6
       283    196.286    684.689     0.822     0.815  -1.7
       284   1017.364    684.782     0.702     0.670  46.0
       285    472.287    686.161     0.586     0.571 -71.1
       286   1277.947    687.331     0.495     0.456 -89.3
       287   1159.530    689.005     0.689     0.593  48.7
       288   1769.325    879.754    23.567     8.816  77.9
       289   2032.225    702.967     0.537     0.518 -30.3
       290    158.157    722.654     7.211     2.506  -8.1
       291    792.684    716.263     1.404     1.222   5.8
       292   1451.689    737.124     4.330     0.526  64.0
       293   1473.425    716.560     4.639     0.680  11.5
       294   1772.616    708.662     0.638     0.468 -72.2
       295   1746.118    709.114     0.636     0.538 -31.7
       296   1072.315    714.048     2.217     0.338  26.7
       297    766.255    724.291     1.173     0.468  89.8
       298   1332.814    732.242     3.768     0.845 -21.6
       299    896.777    723.986     0.935     0.765  72.3
       300   1535.985    781.364     8.410     0.764  76.4
       301    612.859    720.148     0.533     0.530   0.0
       302   1532.552    721.010     0.575     0.305   0.0
       303    271.494    725.606     0.564     0.471 -57.2
       304    179.721    736.327     0.742     0.729 -85.7
       305    697.017    736.949     0.446     0.432 -77.8
       306    361.305    758.668     2.912     0.639  74.9
       307   1817.568    749.305     4.797     0.778  -4.2
       308    954.479    754.271     1.569     0.514   2.0
       309   1099.775    807.924    10.773     0.921 -41.4
       310    968.217    765.694     0.717     0.626  52.8
       311   1624.011    782.659    12.991     1.421  -4.7
       312   1803.645    778.385     0.542     0.515 -87.1
       313   1402.070    786.108     0.764     0.731 -66.6
       314    829.466    813.221     5.143     0.540  50.5
       315   1567.372    880.464    12.480     1.973 -87.6
       316   1078.103    792.978     0.956     0.680  10.6
       317    776.743    798.392     0.512     0.480  83.2
       318    979.217    797.511     0.503     0.427  87.9
       319    462.487    807.241     0.738     0.497  52.2
       320    378.616    825.767     1.787     1.266  38.1
       321   1634.360    858.243    10.374     2.338 -26.3
       322    600.901    817.791     0.559     0.549 -18.6
       323   1051.422    831.741     0.702     0.647 -76.8
       324     81.534    853.794     2.405     0.826  83.7
       325   1422.486    865.176     3.614     0.775 -76.7
       326   1422.986    840.410     0.735     0.722 -11.8
       327    329.257    835.760     0.471     0.389 -41.6
       328    907.947    849.073     5.199     0.658 -10.9
       329    576.204    851.415     0.966     0.764 -51.4
