#   1 NUMBER                 Running object number                                     
#   2 X_IMAGE                Object position along x                                    [pixel]
#   3 Y_IMAGE                Object position along y                                    [pixel]
#   4 A_IMAGE                Profile RMS along major axis                               [pixel]
#   5 B_IMAGE                Profile RMS along minor axis                               [pixel]
#   6 THETA_IMAGE            Position angle (CCW/x)                                     [deg]
         1   1422.503     71.833    48.043     0.468 -60.8
         2    328.160     81.733    10.374     1.386  55.0
         3    763.031     30.574    25.448     2.873  14.4
         4   1196.328     31.797     4.290     1.051 -53.5
         5   1526.530     18.473     4.335     0.728 -87.6
         6    566.972     16.037     1.047     0.877 -51.1
         7    453.618     14.003     1.836     0.860 -11.5
         8     23.727      9.809     1.146     0.930  72.4
         9     81.418     12.257     4.862     0.608 -67.9
        10   1866.211      1.000   173.229     0.289   0.0
        11     22.273     19.339     2.695     0.703 -47.7
        12     35.005     10.810     0.931     0.577  58.7
        13    505.082     15.311     0.698     0.638  85.7
        14   1551.182     18.763     0.677     0.611  84.9
        15    693.085     30.007     1.290     0.819 -59.6
        16    813.796     36.070     5.295     0.877  17.2
        17      4.589     30.884     1.383     0.486 -86.5
        18    448.254     38.497     1.381     0.578 -26.3
        19   1493.127     71.241     6.222     0.558  48.5
        20    298.803     64.574     5.301     1.782 -47.4
        21   1629.364     35.241     1.052     0.673   3.5
        22   2018.230     46.468     5.479     0.476 -12.7
        23   1850.039     49.382     2.227     0.975 -52.1
        24    267.496     67.312     4.295     0.539 -89.2
        25    677.021     44.822     0.603     0.581 -65.0
        26   1526.533     46.732     1.038     0.776 -85.8
        27   1714.996     41.036     0.399     0.344   0.2
        28   1866.727     46.756     0.547     0.535 -66.4
        29   1526.257     55.736     1.465     0.369 -80.5
        30   1765.285     48.059     0.456     0.227   9.4
        31   1531.707     55.583     0.714     0.707  23.4
        32   1628.488     56.318     0.673     0.644   7.8
        33   1555.406     56.465     0.798     0.200 -54.5
        34    698.423     58.078     0.494     0.397   1.0
        35   1983.474     93.987     4.686     0.894  55.2
        36   1551.062     58.265     1.267     0.358 -16.2
        37    956.862     61.943     0.718     0.551  72.6
        38   1285.058     61.777     0.543     0.525  83.4
        39   1721.334     67.233     0.720     0.683 -36.3
        40    942.747     64.181     0.435     0.384   4.3
        41   1945.010     76.156     1.790     0.778   1.8
        42    797.036     87.939     3.314     1.193 -11.9
        43   1620.604     78.305     0.587     0.481 -74.7
        44    534.173     79.229     0.458     0.426  47.0
        45     77.427     86.272     0.605     0.582 -59.0
        46    537.346     82.303     0.476     0.459  -5.5
        47   1247.974     94.848     0.927     0.854  52.8
        48    654.331    108.900     3.555     0.777 -39.0
        49      5.989     87.937     0.378     0.322 -89.0
        50    823.430    102.769     1.444     0.532 -75.7
        51   1343.294     97.832     0.676     0.662   0.3
        52   1274.749     99.386     0.779     0.764  30.2
        53   1346.901    108.584    11.693     0.836   4.3
        54    362.575    104.743     0.839     0.780  83.4
        55   1448.356    103.171     0.479     0.377   0.8
        56    459.344    107.221     0.743     0.338 -36.9
        57    248.452    111.515     0.730     0.627  28.4
        58   1220.055    106.640     0.482     0.349  82.0
        59    270.335    133.105     1.274     0.397  77.9
        60   1771.185    119.172     0.623     0.598 -19.8
        61    428.818    119.254     0.507     0.443  63.2
        62    164.313    117.885     0.464     0.338   0.2
        63   1814.354    195.264     7.732     1.094  77.7
        64    576.930    127.673     0.713     0.690  74.1
        65    962.341    127.828     0.725     0.698 -57.3
        66    464.024    136.801     3.849     0.525  24.8
        67    814.314    146.663     2.401     0.640 -62.2
        68    630.784    144.922     0.551     0.536 -51.4
        69    547.391    144.385     0.507     0.493 -61.3
        70    891.089    148.318     0.480     0.391  85.4
        71   1784.601    146.182     0.491     0.384  -6.9
        72    568.318    152.347     0.907     0.489 -21.9
        73    239.248    150.172     0.506     0.448  14.0
        74     88.830    157.926     3.530     0.772  12.9
        75   2017.122    164.881     1.331     0.709  58.0
        76   1134.329    162.556     0.573     0.560  67.8
        77    486.487    205.751     6.041     0.538 -45.0
        78    295.634    190.560     5.802     0.526  34.7
        79   1651.435    169.019     0.920     0.441 -48.6
        80    371.457    169.079     0.694     0.641  41.3
        81    970.885    173.039     0.703     0.660 -83.8
        82    774.229    170.323     0.496     0.404  66.4
        83    794.616    200.730    19.954     0.564   9.1
        84    643.898    175.647     0.532     0.473 -89.3
        85    848.287    292.659    16.366     0.510 -54.0
        86    559.681    211.432     7.035     1.182  32.8
        87    955.909    181.955     0.964     0.698  -2.2
        88   1132.482    177.855     0.500     0.400  -2.5
        89   1892.020    183.179     1.576     0.363 -32.9
        90   1641.098    220.823     6.235     1.036  51.7
        91    542.080    182.191     0.428     0.380 -87.6
        92   1911.080    180.288     0.453     0.271 -89.8
        93    605.780    183.937     0.552     0.535 -22.3
        94    270.167    205.771     2.710     0.370  89.0
        95   1214.069    194.141     0.658     0.650  87.4
        96    270.369    194.028     0.903     0.482 -89.1
        97    169.881    232.596     6.722     1.703  48.9
        98    347.248    197.934     0.513     0.470 -62.6
        99   1609.095    194.746     0.436     0.292  87.7
       100    728.219    204.473     0.766     0.660 -45.2
       101   1310.346    204.449     1.020     0.462  11.6
       102    270.105    219.011     2.037     0.302  88.5
       103    541.139    214.149     0.689     0.558 -24.6
       104    100.191    217.691     4.537     0.798   9.0
       105   1004.209    208.667     0.471     0.407  88.3
       106   1835.422    235.674     7.229     2.493  12.6
       107   1160.476    759.431    32.661     4.862  89.5
       108    578.280    226.555     0.702     0.651  68.8
       109   1471.469    236.372     1.550     0.884 -38.4
       110   1090.412    243.120     0.741     0.719  38.3
       111    925.536    566.716    44.571     0.538 -62.4
       112   1445.131    239.291     0.456     0.335  83.2
       113    215.583    268.852    13.041     1.305   7.0
       114   1530.124    250.756     0.731     0.722 -28.5
       115   1352.513    259.814     0.754     0.627 -64.0
       116    409.287    258.585     0.608     0.361 -51.1
       117   1866.043    284.837     2.339     1.273 -49.2
       118    514.473    275.131     2.057     1.219 -44.2
       119   1354.446    274.415     1.040     0.832  43.0
       120   1115.933    275.659     0.668     0.660  50.3
       121     21.428    312.607     3.958     2.667  71.5
       122    723.364    382.453    15.032     1.053  84.5
       123   1857.648    278.500     0.503     0.474 -69.9
       124   1063.093    288.819     0.734     0.697 -18.9
       125    338.995    293.022     0.892     0.757 -25.1
       126    623.000    288.852     0.381     0.355   0.0
       127   1044.605    291.469     0.500     0.487  71.4
       128   1285.824    355.130    11.224     0.537  40.9
       129   1245.810    299.023     0.416     0.391  77.0
       130    643.820    354.518    10.287     1.448  45.5
       131   1125.804    320.019     1.390     0.872  63.0
       132   1019.074    319.475     0.942     0.771 -16.3
       133   1553.300    327.196     0.560     0.532  65.6
       134     15.825    373.711    10.920     2.069 -27.8
       135   1084.738    329.317     0.586     0.537 -49.0
       136   1366.798    332.766     2.267     0.502   3.5
       137   1724.880    361.982     5.783     3.650 -13.5
       138   1950.867    329.588     0.493     0.339 -86.5
       139   1139.779    351.545     3.467     0.782 -30.1
       140    111.314    343.522     1.090     0.751  46.1
       141   1634.004    344.274     0.881     0.853 -89.1
       142   1681.364    354.789    11.183     0.974   2.8
       143   1845.799    345.568     0.626     0.596 -85.7
       144    403.038    341.260     0.439     0.192 -89.5
       145    303.446    350.930     0.990     0.750   8.9
       146   1831.378    346.152     0.512     0.488   0.4
       147    791.110    361.697     2.299     0.762 -54.9
       148    116.471    353.642     0.660     0.593  66.5
       149      7.662    516.208    15.941     0.923  89.9
       150    965.177    380.477     3.993     1.668 -46.8
       151    295.643    388.166     3.675     1.184 -77.6
       152   1965.773    364.421     0.793     0.715 -71.9
       153   1763.361    359.983     0.600     0.578 -30.3
       154   1811.247    426.126    11.697     1.034 -29.1
       155   1247.376    392.254     5.059     1.158 -41.2
       156   1374.333    368.319     0.774     0.659  56.2
       157   1069.002    387.402     5.159     0.895 -25.6
       158   1581.336    371.276     0.472     0.447   0.7
       159   1856.244    387.199     1.509     0.874  85.8
       160    913.654    379.930     1.173     0.369 -72.7
       161    996.385    374.795     0.535     0.527  63.6
       162   1290.027    385.189     1.227     0.760   7.0
       163    856.162    381.496     0.559     0.533 -59.7
       164    696.709    377.706     0.458     0.452 -52.0
       165   1693.989    382.752     0.532     0.531  75.1
       166    385.149    387.927     0.526     0.495 -31.5
       167    522.575    391.438     0.659     0.642 -73.2
       168    565.039    390.085     0.527     0.446  -7.3
       169   1882.757    402.117     0.903     0.733  87.5
       170   1848.192    392.672     0.470     0.394  87.9
       171    443.379    467.624    13.379     6.152  -2.7
       172   1211.096    399.762     0.652     0.638 -72.2
       173    932.608    394.384     0.513     0.460 -44.1
       174   1266.936    395.018     0.379     0.317  -3.0
       175    908.307    411.501     3.198     0.773 -17.3
       176   1402.546    507.207    13.633     4.269  68.4
       177   1289.596    439.063     4.657     1.438 -65.3
       178    508.615    403.349     0.488     0.475 -21.5
       179    612.357    434.210     5.071     0.768 -26.4
       180    706.616    420.584     0.961     0.634  73.5
       181    286.505    416.251     0.616     0.543  83.2
       182   1533.366    418.807     2.248     0.525   4.6
       183   1987.047    435.038     1.367     0.963 -84.7
       184   1093.068    422.598     0.515     0.252  89.8
       185    880.455    441.858     2.316     0.734  77.8
       186    649.797    432.207     2.091     0.869 -20.4
       187    831.089    426.019     0.611     0.424  63.6
       188    794.754    427.036     0.644     0.388 -68.7
       189    511.684    429.945     0.470     0.463 -58.3
       190    582.178    432.038     0.599     0.548  56.1
       191    491.398    441.474     0.825     0.815  23.6
       192   1286.735    435.404     0.519     0.498 -86.4
       193    966.865    438.290     0.794     0.608  -0.6
       194   1601.654    470.789     3.637     0.825 -89.2
       195    936.507    454.498     2.921     0.872  24.4
       196   1455.385    446.617     0.787     0.710 -59.8
       197    971.275    450.515     1.002     0.657 -32.7
       198    649.065    465.675     2.706     1.553 -26.6
       199   1325.243    469.160     8.839     0.528 -17.0
       200   1211.529    451.880     0.631     0.608 -68.3
       201    688.528    463.738     3.446     0.790 -21.4
       202   1888.277    462.926     4.351     1.087  22.5
       203    943.402    477.089     3.609     1.983  77.7
       204   1117.967    457.865     0.662     0.638 -72.6
       205   1163.363    452.871     0.660     0.616  38.0
       206   1145.950    462.087     1.278     0.664  54.2
       207   1367.182    496.740     6.406     1.705 -32.3
       208   1286.293    462.977     1.806     0.539  -7.6
       209    478.959    469.338     0.616     0.555  66.7
       210    507.414    474.161     0.875     0.856 -82.1
       211    692.580    476.238     0.967     0.658 -69.0
       212    437.619    522.405     5.175     1.074 -77.0
       213   1290.573    474.165     0.495     0.371   3.3
       214   1649.578    481.695     0.573     0.560 -68.2
       215    278.720    512.622     3.852     0.565  75.3
       216    314.118    524.119     4.949     1.078 -85.4
       217   1321.267    497.241     0.516     0.506 -38.4
       218   1212.555    523.483     6.008     0.523 -30.0
       219    412.284    498.188     0.451     0.390  -6.3
       220    125.182    502.932     0.408     0.236 -23.4
       221   1860.743    519.755     1.453     0.643 -51.8
       222   1329.728    516.535     0.863     0.764 -89.7
       223    899.007    562.042     6.527     0.797 -60.5
       224    196.854    511.440     0.496     0.363  89.5
       225   1852.246    515.502     1.347     0.415  12.6
       226    641.175    524.070     0.608     0.579 -46.8
       227   1690.695    529.473     0.661     0.645 -87.6
       228    370.027    534.932     0.716     0.219 -89.1
       229   2016.520    536.239     0.666     0.322  49.0
       230   1341.024    552.326     2.178     0.487  81.3
       231   1646.060    540.030     0.702     0.647 -81.4
       232    577.792    557.636     5.021     1.304  18.7
       233   1657.161    549.120     3.076     0.539 -21.1
       234   1463.776    547.350     0.700     0.629 -80.2
       235   1605.069    549.072     0.630     0.604  83.4
       236   1737.316    557.031     0.940     0.814  -4.7
       237   1291.973    550.414     0.493     0.366  86.9
       238   1241.927    561.876     0.744     0.624 -31.6
       239   1967.894    567.186     0.601     0.260 -71.9
       240    837.362    572.396     0.711     0.705   8.0
       241    957.715    584.815     3.281     0.539 -28.9
       242   1453.927    573.939     0.566     0.549 -67.8
       243   1957.132    594.499     2.939     0.514 -62.7
       244   1968.162    579.908     0.754     0.741 -61.4
       245    308.537    588.913     4.936     0.765  -8.5
       246    173.057    580.145     0.460     0.232 -87.0
       247   1897.727    581.840     0.537     0.533  31.3
       248    393.967    613.709     5.548     3.261  33.0
       249    325.819    603.216     2.962     1.269  34.7
       250   1647.129    599.205     1.885     1.010   4.1
       251    961.978    590.904     0.539     0.531  87.4
       252   2016.499    592.549     0.634     0.474  67.9
       253   1122.808    628.303     6.056     2.481 -45.4
       254    585.871    606.136     0.353     0.331  64.0
       255    755.252    607.193     0.613     0.597 -27.0
       256   1799.498    618.242     0.569     0.548  57.4
       257   1019.599    625.620     0.678     0.637 -88.1
       258    282.693    625.383     0.795     0.416 -54.2
       259    448.038    627.128     0.633     0.616  62.6
       260   1152.929    630.571     0.644     0.523 -21.2
       261   1582.060    625.944     0.374     0.369   4.8
       262    689.664    631.790     1.125     0.523 -29.0
       263    568.710    832.030   107.745     7.505  11.1
       264   1905.469    632.651     0.519     0.498  80.3
       265    877.892    634.154     0.533     0.521  17.4
       266    864.398    631.557     0.516     0.469  49.5
       267   1868.853    644.629     5.618     0.696   1.6
       268    179.896    645.970     0.538     0.506 -88.3
       269     57.157    710.362     7.817     3.688  55.3
       270    329.271    643.239     0.458     0.439  21.2
       271   1982.291    643.659     0.505     0.485 -47.3
       272    202.052    648.902     0.416     0.372  81.4
       273   1352.484    656.415     0.757     0.665 -67.0
       274    976.003    657.704     1.070     0.610 -70.8
       275    784.370    658.056     0.794     0.640  78.6
       276    893.125    658.503     0.540     0.537  64.2
       277    196.343    671.775     0.785     0.698   1.0
       278     69.692    711.949     9.218     0.493  34.6
       279     76.421    681.497     0.796     0.764  78.9
       280    261.104    680.374     0.764     0.737  83.2
       281   1924.205    732.193     9.048     2.562  59.4
       282   2037.675    673.897     0.468     0.304  -0.2
       283    368.479    686.504     0.800     0.756 -18.1
       284   1478.843    705.241     2.270     0.744  81.6
       285    423.200    707.722     6.112     0.964 -13.9
       286    613.513    700.356     3.838     0.496 -16.3
       287   1745.638    699.419     1.530     0.555 -49.8
       288    108.151    731.913     6.479     0.955 -33.7
       289    505.719    699.391     0.922     0.582 -36.0
       290   1172.510    705.887     0.760     0.746  64.1
       291     67.315    811.466    10.379     4.048  81.8
       292    646.166    709.796     0.819     0.784  80.2
       293   1716.205    741.255    12.142     0.752 -15.0
       294   1028.113    714.487     2.325     0.805  -1.5
       295   1772.671    708.564     0.497     0.468 -76.6
       296    834.844    712.991     0.609     0.591 -86.2
       297    203.075    822.768    13.682     4.676 -72.0
       298    903.765    729.674     0.749     0.735  64.7
       299    898.428    731.074     0.875     0.497 -71.9
       300   1678.827    732.211     0.854     0.780 -47.9
       301    232.637    734.232     0.549     0.533  88.7
       302   1039.514    737.576     0.657     0.637  60.4
       303     26.709    735.918     0.651     0.640  65.8
       304    320.707    743.428     0.830     0.645  80.5
       305    353.578    740.065     0.513     0.451  -7.7
       306   1144.987    737.279     0.841     0.267 -26.9
       307    778.486    759.106     2.149     1.058 -81.1
       308    383.879    776.794    10.565     0.518  17.5
       309   1304.534    757.909     0.813     0.807 -14.2
       310   1985.516    754.685     0.522     0.489  55.2
       311   1134.590    762.484     1.171     0.475  68.4
       312    672.515    773.621     2.068     0.995  71.6
       313   1017.897    754.558     0.497     0.397 -86.1
       314    755.632    766.438     0.915     0.774  25.1
       315   1581.018    774.322     5.143     0.564  -9.4
       316   1039.880    775.917     0.708     0.693 -20.3
       317    663.792    775.314     0.684     0.656 -47.6
       318    857.890    773.255     0.446     0.380  86.0
       319   1976.852    776.096     0.642     0.601  44.2
       320    608.115    775.588     0.492     0.319 -87.8
       321   1752.474    779.586     0.505     0.495  49.1
       322   1446.442    793.270     0.788     0.777 -80.6
       323   1842.984    878.068     9.089     6.743 -86.0
       324   1639.133    806.346     3.451     0.759 -28.1
       325    680.316    795.277     0.546     0.531 -86.3
       326   1625.667    841.023     5.887     2.501 -75.4
       327     41.897    794.933     0.395     0.376 -42.7
       328   1498.325    805.923     0.984     0.513  35.8
       329    302.533    801.410     0.663     0.238  44.1
