#   1 NUMBER                 Running object number                                     
#   2 X_IMAGE                Object position along x                                    [pixel]
#   3 Y_IMAGE                Object position along y                                    [pixel]
#   4 A_IMAGE                Profile RMS along major axis                               [pixel]
#   5 B_IMAGE                Profile RMS along minor axis                               [pixel]
#   6 THETA_IMAGE            Position angle (CCW/x)                                     [deg]
         1    307.478     51.128     6.317     2.090  63.0
         2   1526.610     19.454    11.071     0.770 -89.3
         3   1342.405     20.722    12.006     1.759  72.6
         4    198.662     18.716     9.083     1.505  43.4
         5    500.317     17.483     3.429     0.688 -59.1
         6     20.236     19.533     2.495     1.827  79.6
         7   1310.261      9.669     4.165     0.973 -60.2
         8    470.630      6.440     2.004     0.477 -73.5
         9   1004.514      7.288     0.688     0.682  87.8
        10    666.453      7.440     0.776     0.730  83.1
        11   1101.785      4.719     0.952     0.904  69.3
        12    547.641      6.163     0.497     0.473  -4.3
        13   1867.078      1.000   172.897     0.289   0.0
        14   1381.406     19.749     1.240     0.329 -59.7
        15   1665.408     10.435     0.532     0.452 -46.5
        16     92.647     15.024     0.612     0.481  32.9
        17   1173.063     26.283     3.155     0.639  22.2
        18    723.175     13.411     0.575     0.486 -14.9
        19    666.095     60.861     6.208     0.786  47.6
        20   1993.505     24.524     0.506     0.493  43.8
        21   1986.729    100.248    28.803     1.081 -13.5
        22   1258.042     54.004     4.056     0.435  48.1
        23   1496.651     56.965     4.702     0.519  33.4
        24    731.612     34.038     0.487     0.327   0.7
        25      4.372     32.591     1.151     0.212 -23.1
        26    641.935     43.473     0.694     0.659  -9.3
        27   1079.967     57.506     2.121     0.552  53.3
        28   1203.256     49.761     0.659     0.651 -52.8
        29    322.690     43.365     0.490     0.453  60.4
        30   1332.265     51.275     0.649     0.464  15.6
        31   1734.745     50.824     0.450     0.365 -24.9
        32   1526.749     58.783     1.405     0.997 -83.7
        33   2032.566     64.020     5.193     0.531  12.5
        34   2019.964    192.597    12.556     8.852 -67.1
        35    569.019     59.788     0.501     0.319 -89.7
        36   1718.459    131.608    10.714     3.837  58.3
        37   1808.176     67.453     0.622     0.613  64.7
        38   1548.936     76.436     0.848     0.821  70.1
        39   1964.068     86.111     3.324     0.492  45.5
        40    270.147    128.836     3.666     0.352  89.4
        41    998.347     77.576     0.501     0.474  75.2
        42    660.003    147.035     7.572     0.610  64.5
        43   1620.617     78.415     0.495     0.484  62.6
        44   1547.618     92.430     2.863     1.186   0.1
        45   1526.220     84.523     1.112     0.258 -72.6
        46    563.802    101.617     2.132     0.712  88.5
        47   1294.868     88.804     0.698     0.668  46.9
        48   1094.828     89.996     0.475     0.334   1.8
        49    294.363     96.011     0.690     0.547  66.9
        50   1712.678     97.027     0.490     0.456 -29.9
        51    235.558    119.792     4.990     0.643  34.2
        52    686.242    103.448     0.501     0.444 -74.0
        53    500.670    113.394     0.561     0.507  75.4
        54    738.577    137.466     4.263     2.618 -38.4
        55    311.326    117.917     0.796     0.747   5.7
        56   1964.081    159.392     8.983     0.547  37.1
        57     18.738    125.139     0.857     0.825  66.4
        58    826.200    129.967     1.428     0.886  18.8
        59   1800.514    123.415     0.802     0.770 -86.0
        60    918.576    146.830     2.552     0.738  84.6
        61    498.252    121.884     0.434     0.320   0.2
        62   1904.676    126.194     0.547     0.536  70.4
        63   1323.777    129.615     0.722     0.712 -30.0
        64    706.877    154.983     3.194     0.506 -73.1
        65    492.823    130.530     0.589     0.563 -38.3
        66    696.968    137.955     0.787     0.720 -60.6
        67    517.288    135.673     0.624     0.559 -81.7
        68   1885.009    140.567     0.520     0.424  86.7
        69   1496.509    141.771     0.553     0.521  45.3
        70   1658.594    178.288     4.593     0.539 -86.4
        71    855.626    146.696     0.626     0.570 -72.7
        72   1180.903    144.539     0.502     0.355  80.9
        73    394.945    148.084     0.668     0.632  -6.2
        74      3.861    157.598     1.564     1.001 -10.5
        75    198.394    165.320     0.884     0.829  76.4
        76    133.368    177.669     2.387     0.917  76.5
        77    532.722    160.094     0.589     0.576  65.1
        78   1876.652    157.391     0.488     0.476 -88.3
        79   1018.689    162.344     0.533     0.507 -28.9
        80    286.981    181.591     1.325     1.232  73.4
        81    371.405    169.028     0.647     0.619  15.8
        82    270.292    197.769     3.779     0.587  87.1
        83   1646.259    228.746    10.401     4.239 -47.1
        84    270.194    215.311     5.907     0.465 -89.7
        85   1128.118    175.308     0.713     0.703 -59.3
        86    758.319    221.785    11.182     1.330  31.1
        87    681.182    198.155     1.827     1.332  77.1
        88   1890.301    185.278     0.481     0.470  58.5
        89    884.988    222.053     6.844     0.555 -32.8
        90   1132.274    196.310     0.840     0.800  78.6
        91   1888.415    188.936     0.496     0.356  -9.8
        92   1259.205    209.713     2.907     1.848  13.2
        93   1276.210    199.264     2.337     0.561  12.9
        94   1782.237    283.050    20.542     0.486 -34.2
        95   1755.814    200.347     0.509     0.440  83.7
        96    739.574    206.923     0.895     0.764 -62.6
        97   1820.091    212.242     0.964     0.684 -86.5
        98    409.578    267.652    10.275     0.636 -43.1
        99    333.628    206.592     0.503     0.471 -52.5
       100   1024.130    250.591     6.338     4.112  -5.1
       101   1203.892    213.523     0.549     0.530 -77.6
       102    450.154    222.472     1.794     0.532 -44.9
       103   1562.677    211.964     0.479     0.370  20.4
       104   1157.560    255.656     7.030     0.894 -51.7
       105   1761.157    210.402     0.789     0.309 -31.7
       106    629.477    217.420     1.234     0.690   8.5
       107    391.253    327.164    13.811     1.640 -74.2
       108   1163.011    765.737    63.059     0.114  90.0
       109   1576.039    220.380     0.641     0.512 -12.0
       110    726.898    219.818     0.386     0.318 -87.0
       111   1535.010    235.328     1.203     0.806  60.2
       112   1391.271    246.051     5.294     0.528 -26.9
       113   1971.080    263.010     6.187     0.505 -40.7
       114    856.600    246.490     2.598     0.781 -53.4
       115    598.207    234.158     0.463     0.446  -8.2
       116    178.681    239.958     0.708     0.660  53.6
       117   1708.545    244.642     1.099     0.844 -55.6
       118    301.779    239.164     0.549     0.385  66.5
       119    803.913    239.277     0.491     0.281 -87.3
       120    933.680    244.632     0.727     0.709  69.4
       121   1445.152    239.354     0.479     0.357 -84.2
       122    216.255    248.111     1.118     0.729   3.9
       123   1085.171    249.168     0.722     0.653  75.4
       124     40.578    244.215     0.500     0.423  16.8
       125    101.495    249.421     0.792     0.647 -43.4
       126   1620.625    316.139    16.083     2.856 -25.4
       127   1332.701    292.227     5.911     0.733 -60.2
       128   1121.188    254.552     0.804     0.776  77.6
       129   1984.105    257.839     0.712     0.671 -68.0
       130   1902.588    263.346     5.328     0.540  -6.5
       131   2024.861    260.493     0.536     0.499   7.1
       132   1426.089    260.670     0.592     0.449 -21.4
       133    557.488    272.074     0.706     0.604 -61.2
       134    441.261    272.397     0.643     0.639 -77.9
       135   1075.526    282.708     1.052     0.677  81.8
       136   1837.821    341.296     6.890     2.858  72.3
       137    843.617    280.096     0.829     0.697  71.1
       138   1086.870    281.829     1.005     0.584 -63.3
       139   1343.161    283.399     1.506     0.415  76.8
       140    570.553    290.861     2.785     0.493  39.3
       141    319.050    279.416     0.493     0.369 -88.8
       142   1512.140    289.826     0.624     0.613 -75.2
       143    516.615    294.922     2.203     0.612  11.4
       144   1701.046    297.883     4.638     0.872  -9.7
       145   1880.503    299.099     1.288     0.729  20.4
       146   1245.793    299.079     0.562     0.357 -63.8
       147   1261.316    300.119     0.465     0.323  -0.4
       148    446.209    335.090     3.546     0.908 -72.7
       149   1954.721    310.589     0.791     0.772 -36.5
       150   1936.035    325.834     2.644     0.688 -28.0
       151   1323.374    318.221     0.484     0.458   1.3
       152   1836.029    359.634     5.451     0.958 -66.3
       153   1552.900    505.287    24.924     2.755  59.8
       154   1155.756    331.449     0.722     0.693 -73.6
       155    353.822    332.572     0.843     0.750  29.1
       156   1416.655    379.835     7.477     2.238  80.9
       157   1014.908    351.437     3.770     1.589 -29.2
       158    730.215    349.249     1.515     1.076  60.6
       159    713.303    424.873    14.895     0.821 -53.9
       160   1784.597    342.460     0.572     0.439  46.3
       161     18.317    354.382     2.742     0.445  35.7
       162    568.754    352.665     1.785     0.741  36.2
       163   1366.035    348.997     0.534     0.436 -43.5
       164   1087.436    354.034     0.603     0.549 -67.5
       165    377.092    353.199     0.571     0.528  44.4
       166   1094.890    352.053     0.407     0.400 -63.3
       167   1266.253    349.631     0.483     0.435 -89.8
       168      7.675    516.562    16.041     0.925  90.0
       169   1142.604    439.892     9.937     0.496 -76.0
       170   1582.480    362.392     0.621     0.611 -69.2
       171      4.672    362.827     0.535     0.517 -36.4
       172    964.700    391.299     1.992     1.119 -22.7
       173    492.386    390.204     4.609     0.590  31.9
       174   1016.552    383.915     0.726     0.709  71.2
       175    164.038    381.415     0.876     0.494   4.9
       176   1788.251    430.313     5.364     1.614 -88.0
       177   1961.039    409.895     3.537     0.590  53.9
       178   2004.325    385.423     0.563     0.522 -83.3
       179   1529.818    387.273     0.472     0.424  85.5
       180    786.392    390.767     0.775     0.531 -60.9
       181   1878.920    448.755     9.681     0.950  45.4
       182   1749.309    445.519    11.060     3.351  39.5
       183    664.841    408.089    17.056     0.640   6.0
       184    685.999    396.656     1.203     0.765   2.0
       185    500.914    408.939     2.264     0.631  27.2
       186    624.151    408.012     0.861     0.806  74.5
       187   1448.689    404.731     0.537     0.486 -30.7
       188   1307.073    459.929     8.322     1.026 -38.2
       189   1560.074    430.359     2.618     0.925  88.3
       190    548.343    416.322     1.313     0.553 -76.3
       191   1252.762    415.759     0.775     0.647 -33.3
       192   1770.011    419.965     1.193     0.481  49.1
       193    950.070    413.861     0.377     0.254 -86.6
       194   1329.948    421.371     0.632     0.490  12.7
       195     31.739    424.505     0.520     0.495 -78.2
       196    794.590    427.081     0.849     0.498 -59.9
       197   1851.227    444.990     2.653     1.975  44.4
       198    830.990    425.992     0.607     0.348  74.3
       199   1383.969    465.264     4.072     3.380  84.9
       200     68.660    435.391     0.839     0.789  85.2
       201    511.723    429.957     0.488     0.449   0.1
       202   1501.872    430.872     0.641     0.613   0.3
       203    531.165    432.286     0.540     0.518  60.3
       204   1601.669    470.682     3.632     0.817 -89.2
       205    392.098    463.120     3.611     0.747  43.6
       206    454.718    464.108     0.988     0.807  62.3
       207    963.567    460.879     0.556     0.550  81.2
       208    863.406    467.237     0.692     0.658 -65.6
       209    934.128    462.464     0.499     0.334 -89.4
       210   1421.120    467.020     0.614     0.601 -29.1
       211   1426.441    515.055    10.513     0.826 -28.6
       212   1943.287    476.432     0.598     0.551  60.9
       213    481.905    482.180     1.791     0.854  13.7
       214   1124.921    481.704     0.517     0.251 -77.3
       215   1814.727    495.040     1.832     0.502  58.2
       216    756.229    545.087     7.053     1.319  66.0
       217   1121.128    493.740     0.605     0.501 -62.2
       218    619.518    499.015     0.668     0.657  87.0
       219    890.186    513.373     2.360     0.876  46.3
       220    624.467    501.030     0.889     0.533 -45.5
       221   1117.295    508.479     0.916     0.742 -80.9
       222    762.895    506.058     0.348     0.320   1.7
       223   1238.890    513.526     0.782     0.766 -43.1
       224    823.598    539.480     3.512     0.659  57.5
       225    954.503    517.929     0.821     0.657 -33.5
       226    933.100    517.065     0.661     0.658 -36.2
       227    346.063    522.571     1.260     0.352  34.1
       228   1880.720    589.072     9.265     1.639  38.6
       229   1346.047    533.203     0.869     0.851 -65.3
       230   1977.498    546.344     2.442     0.902 -59.0
       231   1752.833    535.505     3.470     0.561   0.9
       232    801.086    620.515    10.430     4.053 -65.3
       233   1012.408    541.595     0.740     0.702 -61.5
       234   2003.093    554.526     3.058     0.490 -43.3
       235   1288.003    546.978     6.233     0.500  -6.5
       236   1549.909    554.731     2.022     0.707 -36.1
       237   1997.124    546.804     3.653     0.481  -7.6
       238   1659.941    552.532     1.741     0.521  57.3
       239   2010.627    543.325     0.503     0.448  36.9
       240   1272.005    573.919     3.910     0.731  56.6
       241   1514.672    555.340     0.668     0.629  49.2
       242    989.793    633.800    11.092     1.507  66.8
       243    846.240    556.406     0.798     0.777 -22.9
       244    649.114    636.998    19.205     0.895  29.6
       245    610.726    588.718     5.084     0.794 -85.2
       246    692.605    576.067     2.938     2.521 -32.6
       247    544.965    570.850     5.020     0.499 -18.7
       248    519.497    641.964    10.442     3.020  60.5
       249    409.244    563.908     0.439     0.369  -1.1
       250   1292.591    565.764     0.492     0.433   0.1
       251   1294.808    570.708     0.563     0.558 -70.7
       252   1061.269    577.327    21.615     0.524   0.4
       253   1213.011    579.087     0.654     0.627  64.4
       254    313.952    578.017     0.556     0.537  87.8
       255    587.518    589.391     5.702     0.512  11.5
       256   1000.782    585.768     0.614     0.614 -87.8
       257   1974.039    641.223     8.575     0.876 -58.0
       258    844.414    584.211     0.544     0.525  78.9
       259    447.156    611.673     5.586     0.821 -30.7
       260    824.820    608.137     2.457     0.512  49.9
       261    562.382    628.171     4.416     0.951  86.7
       262    546.713    604.589     0.494     0.470 -72.5
       263   2005.359    605.783     1.147     0.405   4.0
       264    882.414    612.915     0.645     0.632 -66.0
       265   1338.612    618.228     1.223     0.745  36.0
       266   1199.264    610.965     0.576     0.569 -86.9
       267    200.915    678.931    15.991     0.534 -25.8
       268   1950.737    624.132     0.894     0.732  -4.8
       269    928.240    634.890     3.282     0.892 -22.1
       270   1076.304    629.294     0.755     0.737  87.9
       271   1538.629    626.417     0.559     0.545  47.0
       272    308.227    624.330     0.585     0.577 -38.1
       273    617.723    632.977     0.877     0.855  81.0
       274    973.003    665.694     4.843     2.674 -83.8
       275    934.084    641.217     0.754     0.544 -50.1
       276   1989.939    638.315     0.676     0.292  84.0
       277    789.408    639.734     0.702     0.627  70.1
       278    230.878    642.607     0.868     0.735 -75.7
       279    578.898    672.988     3.832     2.280 -83.3
       280    603.526    644.327     0.695     0.680  34.7
       281   1931.851    685.196     6.660     0.628 -42.2
       282   1551.634    652.019     1.606     0.592  24.7
       283    481.478    649.296     0.755     0.735  38.6
       284    296.000    653.152     1.559     0.289  90.0
       285     98.913    648.430     0.639     0.627  85.2
       286   1801.037    665.086     2.179     0.892  78.1
       287    873.313    653.538     0.709     0.680  42.4
       288    450.661    646.651     0.480     0.470 -53.7
       289   1473.130    657.708     0.783     0.765  34.5
       290   1075.314    653.242     0.469     0.436 -23.5
       291     89.083    659.020     0.884     0.758 -47.8
       292   1369.862    662.904     0.755     0.738 -76.5
       293   1093.069    661.030     0.405     0.392 -11.2
       294   1909.749    659.912     0.542     0.533 -29.2
       295   2017.325    683.780     1.545     0.678 -45.3
       296   1374.956    682.624     7.972     0.513   2.0
       297     57.905    680.353     0.823     0.581 -30.2
       298    323.892    683.978     0.737     0.692  68.7
       299   1605.888    686.928     0.692     0.613 -46.9
       300   1118.976    690.074     1.656     0.706   6.8
       301    816.347    745.440     7.455     0.758  68.4
       302    145.632    693.489     0.765     0.743 -75.6
       303    927.204    717.277     3.330     0.581  80.5
       304    247.593    695.876     0.681     0.654 -36.7
       305    819.233    716.282     2.839     0.572 -87.3
       306   1242.886    698.598     0.623     0.610  23.6
       307   1244.984    706.261     0.691     0.680 -48.2
       308   1365.963    710.530     2.811     0.528  20.3
       309    957.551    730.963     4.782     0.773  42.5
       310   1772.713    708.512     0.652     0.447 -28.1
       311   1106.275    791.780     9.236     0.523 -58.6
       312    720.683    723.987     0.764     0.367  58.1
       313   1258.591    732.715     0.847     0.793 -54.2
       314    685.488    752.270     4.286     1.807 -29.0
       315   1660.177    734.342     0.474     0.381  88.7
       316   1758.828    845.710    11.785     1.076  86.7
       317   1698.981    797.908     6.456     0.486  76.7
       318   1602.435    746.971     0.496     0.234   1.6
       319    708.579    748.000     0.511     0.365  21.5
       320   1054.192    757.354     0.862     0.839   4.5
       321    723.995    782.241     3.330     2.867 -26.9
       322   1784.902    760.997     1.126     0.750  41.9
       323   1749.120    756.943     0.434     0.380   1.4
       324    841.771    773.503     1.222     0.851  56.4
       325    573.865    766.309     0.714     0.680  61.1
       326   1379.594    782.047     0.492     0.454  10.1
       327    478.802    788.375     0.784     0.751 -72.1
       328   1218.952    786.192     0.435     0.343  88.4
       329    466.211    786.377     0.515     0.486 -45.0
