#   1 NUMBER                 Running object number                                     
#   2 X_IMAGE                Object position along x                                    [pixel]
#   3 Y_IMAGE                Object position along y                                    [pixel]
#   4 A_IMAGE                Profile RMS along major axis                               [pixel]
#   5 B_IMAGE                Profile RMS along minor axis                               [pixel]
#   6 THETA_IMAGE            Position angle (CCW/x)                                     [deg]
         1    735.263     76.676    65.732     7.383 -48.9
         2    995.707     65.544    14.705     1.620 -50.3
         3     20.583     59.658    14.921     1.024 -48.0
         4   1688.474     42.434     8.075     3.888  30.0
         5   1341.399     25.623    31.145     0.521  19.0
         6   1060.667     27.219    12.829     4.080   9.3
         7   1533.441     22.227     1.946     1.803  47.6
         8   1145.664     13.749     0.789     0.755  12.5
         9    797.267     11.754     0.740     0.721 -72.4
        10    977.711      3.316     1.886     0.506   5.8
        11   1192.519      3.036     0.747     0.187  -0.4
        12   1866.420      1.000   173.138     0.289   0.0
        13   1587.513     16.088     0.965     0.771 -22.8
        14    459.950     14.483     0.912     0.649 -25.6
        15     71.750     16.239     1.087     0.575  20.3
        16     26.773     14.043     0.849     0.700  -8.4
        17   1389.367     91.190    10.777     0.981  62.6
        18   1526.259     33.617     2.572     0.427 -87.7
        19   1561.024     30.208     0.769     0.714 -81.6
        20   1619.488     30.127     1.273     0.210  68.8
        21   1599.071     22.202     0.402     0.325 -89.7
        22      8.441     25.509     1.120     0.601 -30.6
        23   1012.533     34.555     0.864     0.827 -77.1
        24     17.570     24.216     1.132     0.257 -17.0
        25   1247.959     30.467     0.676     0.675  28.3
        26     10.030     29.155     0.923     0.579 -61.5
        27   1979.432     29.750     0.567     0.550 -77.1
        28   1944.992    119.263    27.118     4.124  18.2
        29   1800.291     58.178     8.140     1.522 -13.8
        30   1526.485     46.938     1.987     0.620  90.0
        31   1479.162     41.023     0.513     0.504  -7.3
        32   1146.380     41.348     0.547     0.530 -49.1
        33    665.113     90.071    10.892     0.992  43.3
        34   1354.029    175.243    49.932     0.660  16.9
        35    511.550     48.882     0.947     0.890 -12.9
        36   1308.834     92.501     6.600     0.532  53.3
        37    381.234     51.650     1.414     0.697  11.0
        38    131.933     47.332     0.486     0.458 -47.3
        39   1304.657     59.524     4.729     0.811  -8.7
        40    581.285     95.996     4.973     2.011  70.3
        41    939.145     76.714     1.887     1.464  86.9
        42   1911.797     59.747     0.436     0.401 -80.6
        43   1692.114     66.813     1.033     0.486 -19.6
        44    900.870     67.358     2.122     0.390   9.8
        45   1882.291     64.912     0.710     0.499  -5.3
        46   1596.442     68.429     0.657     0.645  59.9
        47   1978.662     70.242     0.702     0.524  69.6
        48    816.618     80.203     1.830     0.472  45.0
        49    646.271     73.493     0.551     0.505  14.5
        50   1964.325     78.938     1.221     0.481 -35.5
        51   1890.113     77.526     0.500     0.369  87.1
        52   1620.604     78.396     0.506     0.472 -45.0
        53   1380.363     86.010     0.481     0.174  -1.9
        54   1016.619     88.365     0.834     0.813 -40.6
        55    546.629     90.039     0.764     0.751 -24.4
        56    814.174     90.582     0.800     0.561 -78.6
        57   1850.100    125.063     8.052     1.609  42.4
        58   1674.078    121.392     3.425     1.361  74.9
        59    351.435     89.060     0.574     0.558 -50.8
        60    591.529     91.369     0.696     0.469 -70.6
        61    447.811     90.941     0.505     0.348  21.6
        62   1172.184    105.094     0.867     0.793 -26.6
        63    966.164    159.377    13.780     0.523  31.0
        64    401.921    107.205     0.992     0.767  51.9
        65   1824.434    103.248     0.657     0.645 -75.5
        66   1065.711    126.129     8.888     2.321   6.1
        67    559.133    114.206     4.298     0.472  14.7
        68    858.325    107.643     0.485     0.462 -58.5
        69   1604.860    115.915     0.764     0.731 -69.4
        70    270.125    119.138     1.643     0.319 -86.9
        71   2022.508    110.404     0.501     0.490  16.0
        72    270.207    113.658     0.823     0.358 -75.2
        73    237.115    113.895     0.493     0.475  67.4
        74   1238.166    137.852     3.665     0.872 -54.6
        75    228.972    134.500     2.993     1.533   4.2
        76   1829.132    150.435    12.671     1.891   8.6
        77    270.117    131.311     2.103     0.284  85.8
        78   1364.681    127.107     0.627     0.563  81.4
        79   1989.156    153.578     9.439     1.140  16.8
        80   1669.807    131.334     0.731     0.713 -52.1
        81   1579.661    141.729     0.754     0.749  19.1
        82   1462.002    152.793     6.600     1.252  -5.8
        83    528.678    147.729     2.189     0.819  32.2
        84    140.268    139.061     0.652     0.612 -55.3
        85    978.967    141.873     3.312     0.528   9.4
        86   2032.690    155.118     1.635     1.329  79.5
        87    270.075    208.440     8.481     0.256  89.6
        88   1852.213    154.505     1.862     0.827 -46.2
        89    430.114    165.763     1.073     0.812  -9.9
        90   1804.747    202.161     6.164     0.500 -59.6
        91    867.013    154.574     0.495     0.385  88.8
        92   1644.447    165.709     0.865     0.640   6.4
        93    387.543    173.053     0.909     0.700 -64.0
        94    371.405    169.056     0.677     0.650 -32.8
        95   1602.417    182.619     1.187     0.845   6.8
        96    934.270    177.086     0.551     0.513  87.5
        97   1401.493    241.643    10.809     2.581 -38.2
        98   1185.391    193.061     1.001     0.530 -37.1
        99   1787.586    197.796     1.189     0.880  -8.7
       100   1064.049    190.926     0.406     0.379  79.9
       101   1192.419    194.739     0.804     0.710  -4.0
       102     57.977    190.011     0.341     0.303 -19.6
       103   1774.559    208.995     5.794     1.421  12.3
       104   1396.815    194.601     0.504     0.479  80.4
       105    673.540    200.829     0.872     0.803  36.9
       106   1655.527    199.604     1.236     0.643  53.2
       107    225.054    210.641     2.198     0.849  17.6
       108    259.557    200.729     0.708     0.684 -51.7
       109    219.468    201.763     1.277     0.495  40.4
       110   1904.878    206.617     0.546     0.541  33.5
       111    424.780    210.855     0.841     0.726 -75.4
       112    700.005    254.799     8.405     0.978 -45.9
       113     19.713    210.281     0.565     0.529  35.6
       114   1877.653    218.561     0.796     0.761  -9.0
       115   1163.627    805.576    71.742     1.021  89.5
       116   1852.013    219.307     0.461     0.243 -87.3
       117   1598.596    228.039     0.861     0.792  48.8
       118   1719.396    225.166     0.666     0.615  69.0
       119   1226.807    222.121     0.475     0.192 -37.3
       120   1332.800    255.328     3.976     0.995 -75.4
       121    178.671    239.975     0.717     0.640  56.5
       122    106.371    248.083     1.057     0.841  62.7
       123    614.304    273.378     7.936     0.872 -33.3
       124   1363.949    251.392     1.367     0.935 -36.3
       125   1445.177    239.344     0.476     0.381  85.4
       126    807.710    247.987     0.830     0.715 -59.3
       127    739.064    256.841     0.961     0.893  50.7
       128    126.269    253.387     0.668     0.638 -71.0
       129    932.749    511.501    30.875     5.028  72.9
       130    916.095    253.857     0.424     0.407 -83.4
       131   1707.593    289.986     5.128     0.683  72.0
       132    923.274    259.169     0.693     0.583   8.9
       133   1661.505    262.849     0.514     0.490  50.7
       134   1188.681    275.841     6.267     1.111   7.3
       135   1726.262    266.684     0.734     0.462  85.4
       136    944.393    281.269     2.116     0.411  58.8
       137    363.146    275.206     1.163     0.662 -51.0
       138   1982.250    298.669     4.097     1.119 -41.3
       139   1344.008    286.482     0.834     0.822 -39.6
       140   1242.747    286.226     0.611     0.601 -81.1
       141    274.172    285.397     0.519     0.497 -73.7
       142   2025.408    306.081     3.248     0.865  52.1
       143   1479.698    298.303     2.888     0.873 -19.5
       144    917.718    319.540     4.387     0.719  58.0
       145   1392.273    412.463    14.261     3.459  79.8
       146    122.349    315.380     7.438     0.748 -21.1
       147    175.578    643.595    69.275     1.746 -35.6
       148    736.268    292.077     0.463     0.230  19.7
       149   1245.882    299.000     0.464     0.323  90.0
       150    538.050    298.874     0.351     0.267  89.8
       151    586.654    330.426     2.925     0.732  82.9
       152    857.819    309.474     1.267     0.735 -47.3
       153     53.208    326.681     4.684     0.972  23.2
       154    447.938    312.107     1.036     0.730 -80.7
       155    962.662    361.013    35.439     4.356  -3.4
       156   1017.584    335.506     2.916     1.321  83.4
       157    558.760    315.869     2.175     0.817  10.3
       158    659.394    386.483     8.181     1.770  72.0
       159   1584.378    461.746    16.959     3.939  53.5
       160    602.109    356.345     2.216     1.265 -65.7
       161    353.803    345.695     0.541     0.360 -65.3
       162    591.796    498.784    17.470     3.333  78.1
       163    167.850    354.367     0.505     0.422  85.7
       164      2.686    352.060     1.169     0.249  -3.2
       165      7.976    511.705    10.854     0.820 -89.6
       166    176.844    366.355     2.017     0.755  35.6
       167    638.003    353.825     0.389     0.262  89.9
       168    620.686    387.112     8.106     0.707  22.5
       169   1846.969    357.061     0.917     0.433  44.7
       170    632.672    409.160    10.231     3.864 -29.9
       171    932.224    378.392     1.909     0.907 -37.7
       172    478.980    369.612     0.821     0.580  62.4
       173    331.136    369.916     0.749     0.701  83.8
       174   1535.566    404.349     6.149     1.098  51.0
       175   1552.446    388.815     3.421     1.770 -53.6
       176   1008.960    373.678     0.588     0.575 -17.9
       177    247.278    384.009     1.321     0.794 -51.5
       178   1898.783    381.878     1.414     0.735   9.9
       179    574.242    379.346     0.633     0.629  64.9
       180   1063.975    385.129     0.749     0.711  69.2
       181   1637.871    529.671    17.193     0.557 -78.3
       182    470.848    383.290     0.481     0.408 -80.0
       183    379.703    388.539     0.681     0.658 -70.8
       184   1189.758    386.774     0.539     0.533 -75.7
       185   1319.371    392.644     0.766     0.735 -81.2
       186    154.775    453.542    11.960     0.878 -45.6
       187   1451.212    421.533     7.049     1.196 -34.8
       188    702.460    391.572     0.792     0.714  41.2
       189    485.013    392.368     0.614     0.541 -87.4
       190   1226.121    422.208     3.504     1.653 -37.5
       191    159.905    406.092     0.829     0.793 -58.6
       192   1823.000    407.248     0.962     0.289  90.0
       193     12.055    407.497     0.501     0.434  81.4
       194   1091.365    415.485     0.736     0.673  62.9
       195    729.062    414.573     0.759     0.743  25.5
       196    908.966    419.766     1.920     0.979 -19.7
       197   1690.468    421.546     0.735     0.722  70.7
       198    579.994    424.606     0.563     0.387  89.5
       199    199.256    423.933     0.629     0.435  85.3
       200    571.614    422.501     0.524     0.500  -5.7
       201    672.201    444.008     3.435     0.958  31.3
       202    831.118    425.969     0.516     0.323  88.7
       203    794.859    426.940     0.556     0.347 -87.4
       204   1498.753    436.962     3.035     0.808 -32.3
       205   1174.657    469.968     4.512     2.111 -60.3
       206    500.483    431.449     0.643     0.564  13.8
       207    511.692    429.978     0.483     0.441 -46.3
       208    819.347    435.692     0.841     0.820   0.6
       209     41.600    430.525     0.514     0.475 -52.0
       210    727.837    434.949     0.620     0.562  68.1
       211   1460.189    471.285     3.766     1.032  89.2
       212   1601.685    470.675     3.628     0.860 -89.1
       213   1981.322    441.333     0.750     0.731 -70.0
       214    112.333    443.446     0.506     0.497  -1.3
       215    365.754    455.707     0.905     0.760  58.6
       216    233.527    458.487     1.086     0.801 -25.2
       217    743.618    467.760     4.166     1.187  17.7
       218   1283.377    452.899     0.640     0.606  21.5
       219    503.683    454.127     0.543     0.524  73.9
       220    636.342    462.340     0.899     0.792 -61.0
       221      3.937    457.318     1.165     0.451  54.1
       222    218.087    495.054     3.155     2.244  48.8
       223   1325.654    467.708     0.478     0.453  16.6
       224    796.322    510.844     4.762     1.317 -50.8
       225    605.133    499.319     2.738     0.493  80.8
       226   1470.918    487.480     0.500     0.354 -89.1
       227    679.419    495.540     0.758     0.725  65.1
       228    230.918    517.242     6.092     0.799  29.5
       229    719.046    496.783     0.775     0.630  47.8
       230   1874.519    491.761     0.518     0.494 -12.2
       231   1278.080    502.962     1.079     0.811  53.2
       232   1302.565    498.702     0.695     0.675  65.7
       233    758.632    496.858     2.536     0.297  23.9
       234    407.187    556.886     6.643     0.657  89.9
       235   1466.942    502.310     0.848     0.448  60.4
       236   1807.879    504.252     0.616     0.606  49.5
       237    536.673    522.330     1.051     0.806 -37.6
       238    564.520    562.602     8.582     0.625 -35.5
       239    130.947    554.368     5.055     1.399 -45.4
       240   1159.731    575.057     6.019     0.933 -68.3
       241   1792.357    528.529     0.633     0.548 -11.2
       242   1366.970    530.811     0.608     0.493  79.7
       243    651.181    531.303     6.230     0.478   2.5
       244    619.845    532.891     1.216     0.412 -28.7
       245    538.931    539.901     0.497     0.387 -42.2
       246    816.909    551.509     1.567     0.769 -44.0
       247   1896.744    544.482     0.500     0.436 -86.4
       248    966.082    554.596     0.710     0.624  83.2
       249   1558.627    552.794     0.829     0.643 -90.0
       250   1784.585    550.401     0.905     0.704 -16.6
       251    732.767    549.731     0.505     0.501 -78.7
       252    743.488    551.208     0.782     0.385 -42.2
       253   1140.461    564.517     4.589     1.226   3.3
       254    602.033    555.984     0.427     0.385  89.1
       255    905.251    564.252     1.701     0.595  -5.2
       256   1236.534    560.894     0.499     0.308  -0.8
       257     19.710    560.659     0.474     0.454  81.5
       258    719.912    563.438     0.496     0.425  85.9
       259    866.306    597.060     4.861     0.518 -82.7
       260   1485.493    566.964     0.501     0.496  22.5
       261   1932.072    645.067    12.246     2.580  46.3
       262   1866.744    586.658     1.189     0.722   7.5
       263    779.889    734.361    18.617     1.196 -77.8
       264   1392.269    595.366     1.984     0.757 -25.0
       265   1437.917    590.319     0.494     0.397  70.0
       266    905.244    595.961     1.437     0.583  20.1
       267    880.165    609.587     3.233     0.480 -52.4
       268   1374.553    622.244    13.635     0.803 -12.3
       269    640.341    594.801     0.484     0.453   5.0
       270    204.442    604.443     0.631     0.561  53.8
       271    790.940    661.546    12.060     6.403  27.3
       272    689.923    604.640     0.584     0.576 -14.7
       273     83.041    619.208     2.803     1.016 -10.8
       274   1184.802    709.419    12.492     1.729  81.7
       275   2004.131    613.514     0.602     0.559 -45.5
       276   1973.386    619.749     0.741     0.714 -25.9
       277    947.048    634.118     1.869     0.931  75.5
       278   1464.629    625.272     0.778     0.761  29.9
       279   1155.130    629.676     0.712     0.618  17.1
       280    961.863    635.868     2.426     0.637 -26.1
       281    736.011    630.313     0.923     0.455  28.6
       282   1144.034    636.533     0.701     0.678  25.4
       283    214.742    637.465     0.723     0.701 -82.1
       284   1823.062    643.542     0.853     0.821 -57.6
       285    852.034    636.623     0.485     0.425  88.4
       286    198.214    644.891     1.428     0.760   7.1
       287    781.999    670.000    10.390     0.513 -16.4
       288   1121.211    651.043     0.520     0.510  30.0
       289    620.386    657.482     0.735     0.708  78.7
       290   1494.196    693.903     8.029     0.518 -32.9
       291   1695.102    683.370     2.502     0.810 -80.3
       292   1766.200    670.159     0.489     0.234  40.9
       293   1395.232    679.735     0.445     0.418 -66.5
       294    536.649    702.236    12.805     1.314   2.6
       295   1533.435    695.800     0.706     0.663 -56.5
       296    852.002    715.279     3.631     1.581  88.1
       297   1871.141    695.902     0.758     0.526 -32.3
       298   1953.049    722.908     3.315     2.055 -74.7
       299   1671.108    712.758     2.842     0.776 -35.9
       300    331.817    705.949     0.823     0.711 -76.4
       301    164.290    721.830    11.583     2.135  -2.8
       302   2019.029    718.720     1.455     0.942  83.8
       303   1574.741    708.605     0.716     0.674 -43.5
       304   1988.493    708.174     0.525     0.516   9.7
       305   1296.668    709.099     0.564     0.555  79.2
       306    596.406    714.958     0.748     0.739 -45.4
       307   1772.547    708.500     0.514     0.483 -47.0
       308    985.068    725.401     0.990     0.843 -12.0
       309    324.493    717.978     0.577     0.324   0.5
       310   1731.419    743.307     3.231     0.649 -51.7
       311   1092.655    723.970     0.728     0.680  71.7
       312   1836.929    731.344     1.200     0.540 -46.7
       313    738.186    728.559     0.526     0.450  68.6
       314   1745.032    742.254     1.714     0.740 -83.2
       315    907.466    734.085     0.817     0.767  -0.9
       316   1864.262    734.318     1.154     0.628  12.4
       317    276.261    734.330     0.518     0.513 -70.0
       318    145.056    737.735     0.715     0.703  -9.3
       319   1250.432    758.695     5.865     1.366 -21.6
       320   1983.493    746.677     0.614     0.600 -46.3
       321    376.899    753.928     0.862     0.769 -66.8
       322    732.505    751.995     0.501     0.429   7.7
       323    218.885    761.899     7.274     0.511  -8.2
       324    810.402    769.928     2.147     0.856  49.2
       325   1273.184    759.745     0.624     0.598  73.4
       326   1396.300    763.701     0.528     0.419  48.9
       327   1216.425    810.790     6.679     0.775  43.6
       328   1806.839    788.651     2.293     0.330 -83.1
       329    293.337    773.140     0.553     0.538 -67.2
