#   1 NUMBER                 Running object number                                     
#   2 X_IMAGE                Object position along x                                    [pixel]
#   3 Y_IMAGE                Object position along y                                    [pixel]
#   4 A_IMAGE                Profile RMS along major axis                               [pixel]
#   5 B_IMAGE                Profile RMS along minor axis                               [pixel]
#   6 THETA_IMAGE            Position angle (CCW/x)                                     [deg]
         1    115.383    255.238    31.357     8.860  69.9
         2   1526.240     41.534     3.559     0.427  89.7
         3    913.180     21.470    10.009     1.145 -86.8
         4   1269.811     13.757     1.676     0.918  63.6
         5   1994.173     13.380     0.724     0.700  35.1
         6   1340.334     11.998     7.547     0.763 -28.4
         7   1851.898      9.191     0.707     0.679  87.0
         8    493.193      9.037     1.055     0.282 -39.6
         9   1866.641      1.000   173.070     0.289   0.0
        10    246.042     79.598    12.820     3.856  50.7
        11    361.543     15.310     0.886     0.842  -8.3
        12    828.087     16.891     0.684     0.661 -75.5
        13   1379.047     28.515     1.601     0.838  58.9
        14   1042.886     20.020     1.086     0.736 -58.5
        15   1231.777     80.763    10.396     1.350  60.8
        16   1567.333     21.779     0.928     0.742 -26.8
        17   1161.257     74.901     9.859     4.812 -24.4
        18    784.853     33.159     2.109     1.094   2.6
        19     22.368     22.687     1.222     0.571  28.1
        20     90.557     58.457     5.012     0.763 -47.3
        21    511.759     30.342     0.591     0.580 -89.8
        22     20.676     26.769     1.169     0.416  -3.6
        23     27.893     29.772     0.895     0.576 -54.8
        24    351.889    245.566    23.235     0.525  79.7
        25      7.271     31.416     1.355     0.432  32.1
        26     11.570     30.768     1.165     0.256  17.2
        27   1698.345     35.250     0.497     0.470  26.8
        28   1177.275     49.275     3.035     0.514  25.8
        29    293.075     42.856     1.440     0.378  66.4
        30      4.420     35.517     1.125     0.442  13.0
        31   1651.902     49.127     1.080     0.948 -52.6
        32   1157.544     36.584     0.499     0.492 -24.2
        33    718.419     46.749     2.050     0.519 -32.0
        34    400.533     61.206     1.344     0.796 -72.4
        35    404.745     49.805     0.473     0.470  30.8
        36    867.886     71.484     5.175     1.522 -16.7
        37   1667.340     54.783     0.514     0.505   7.7
        38   1634.857     75.878     1.808     0.855 -11.3
        39     68.187     81.828     1.571     0.895 -47.4
        40   1041.809     67.360     0.480     0.393  89.1
        41   1791.092     81.304     0.749     0.733 -19.0
        42    874.870     95.538     2.687     0.628 -52.7
        43   1620.577     78.362     0.497     0.477 -24.1
        44    783.461     93.815     1.585     0.666  70.0
        45   1360.437     97.181     2.679     1.497 -22.7
        46    345.256    130.730    13.018     1.534  26.8
        47    658.873     93.542     1.006     0.841 -75.8
        48    575.454    123.056     5.677     0.753 -43.7
        49    318.049     97.312     1.218     0.303 -60.8
        50   1556.751    116.757     4.189     1.170  54.0
        51    270.244    124.171     4.026     0.507 -87.8
        52   1549.366    100.429     0.576     0.551 -55.9
        53   2014.859    106.846     1.208     0.629 -84.1
        54    166.190     99.083     0.521     0.497  30.5
        55   1291.460    119.295     1.986     1.143  84.8
        56   1145.366    123.056     3.288     0.762 -25.6
        57    909.922    101.196     0.402     0.321  74.4
        58   1482.382    114.506     1.034     0.743 -61.5
        59   1099.389    112.408     0.873     0.832 -43.5
        60    287.116    106.181     1.014     0.385  -0.9
        61    308.539    112.220     0.498     0.433  -1.4
        62    458.129    114.577     0.531     0.498 -74.0
        63   1738.150    113.516     0.500     0.357  89.7
        64    529.078    118.234     0.477     0.430 -88.4
        65    270.096    137.032     2.432     0.270  87.2
        66    407.194    136.598     2.095     1.037 -17.2
        67   1040.052    127.007     0.434     0.397 -87.2
        68   1894.286    133.150     0.816     0.615  71.6
        69   1545.801    179.104    10.969     0.510  33.6
        70   1865.112    145.151     1.342     0.760 -82.4
        71    763.208    132.152     0.701     0.615  72.2
        72   1968.177    132.348     0.795     0.299 -30.2
        73    847.731    143.867     1.019     0.864 -67.7
        74   1266.007    190.879     6.424     0.694  61.5
        75    400.855    145.165     2.608     0.285  16.0
        76    990.973    145.588     0.709     0.564  21.9
        77   1660.938    151.385     1.257     0.550  -0.6
        78   1688.437    178.504    10.071     0.513  19.6
        79   1278.959    178.147     2.864     1.332  87.1
        80   1422.507    156.616     0.827     0.807  54.4
        81    950.521    155.025     0.502     0.233  -6.0
        82   1144.303    183.023     3.829     1.139  39.8
        83   1948.703    170.883     0.777     0.740 -85.4
        84   1144.589    196.381     4.390     0.503 -67.2
        85    475.710    170.715     0.548     0.523  62.6
        86    371.411    169.035     0.648     0.641  24.8
        87    796.136    173.062     0.344     0.305  -7.2
        88   1491.653    170.855     0.476     0.352   1.5
        89    270.096    207.570     2.333     0.294 -89.4
        90   1824.970    187.453     2.203     0.572 -51.4
        91    575.986    181.808     0.821     0.618  89.9
        92    759.873    207.974     6.031     0.885 -35.0
        93   1276.549    254.852     7.708     3.152 -53.3
        94    437.051    176.068     0.391     0.355  61.1
        95    385.632    241.158     7.505     2.366 -54.7
        96    989.630    188.936     0.926     0.720 -12.3
        97   1033.601    181.836     0.490     0.415  -2.0
        98   1018.252    189.916     0.932     0.812 -69.0
        99   2038.192    192.474     1.565     0.688 -16.9
       100   1690.589    198.063     0.492     0.249   2.0
       101    684.125    242.099     7.626     0.765 -33.6
       102   1064.761    230.983     2.061     1.717  81.8
       103   1906.801    223.051    28.058     0.512   1.6
       104   1324.678    215.884     0.467     0.392  -0.7
       105   1381.374    221.993     0.676     0.539  -0.1
       106    270.000    220.626     1.201     0.289  90.0
       107   1162.015    746.767    45.537     0.870  89.6
       108   1367.172    224.252     2.214     0.508   5.6
       109    619.081    227.988     0.937     0.765  47.0
       110   1410.166    231.355     0.840     0.685 -33.8
       111    736.194    265.767     5.136     1.153  86.1
       112    237.601    230.760     0.962     0.380  68.4
       113   1665.130    242.549     3.120     0.450 -31.9
       114    178.667    239.948     0.715     0.644  48.0
       115    991.595    238.549     0.748     0.730  43.0
       116    198.872    238.763     0.714     0.667  85.1
       117    762.859    237.902     0.585     0.557 -83.2
       118   1055.070    244.189     0.541     0.517  50.9
       119   1445.148    239.374     0.486     0.352  82.1
       120    429.440    245.096     1.363     0.463  52.7
       121   1515.254    255.763     0.844     0.739  68.5
       122    965.940    249.290     0.762     0.456 -14.8
       123   1286.457    257.257     0.934     0.608 -72.6
       124   1346.455    252.786     0.840     0.467  27.5
       125    622.078    280.494     1.739     0.776  86.7
       126   1792.983    276.406     8.932     0.680 -11.8
       127    669.823    284.340     2.791     0.866 -22.7
       128    401.729    272.496     0.631     0.403 -39.0
       129   1164.419    274.177     0.616     0.552  67.4
       130    545.960    269.234     0.513     0.349 -87.7
       131   1709.436    282.817     1.512     0.840 -10.5
       132     37.180    284.995     0.923     0.654  27.3
       133    718.361    298.997     2.553     0.863  89.5
       134    944.639    308.598     3.076     1.448 -51.8
       135    496.077    278.799     0.469     0.396  14.5
       136     83.146    326.088     7.981     0.536  37.6
       137      1.691    292.805     0.868     0.722 -87.6
       138   1926.782    298.435     1.405     1.026   0.4
       139   1992.677    301.971     1.851     0.880  41.7
       140   1339.912    293.813     0.594     0.588 -63.8
       141    607.705    298.711     0.844     0.832 -57.9
       142   1959.409    313.767     4.433     1.197  21.2
       143   1873.640    300.885     1.094     0.812 -10.9
       144   1687.677    328.402     6.027     0.755  47.7
       145    995.050    298.877     0.473     0.449  80.2
       146   1328.467    300.934     0.697     0.485 -76.4
       147   1016.253    316.098     1.232     0.893 -38.4
       148    581.787    311.164     0.771     0.680 -76.5
       149    402.727    313.207     0.773     0.698  60.2
       150    552.340    316.089     2.693     0.754 -12.5
       151   1040.760    323.283     8.729     1.024  -6.1
       152    203.488    323.664     0.678     0.599  64.8
       153   1288.274    325.859     0.679     0.671  68.6
       154   1422.479    325.119     0.542     0.452  44.4
       155    194.347    335.898     5.380     0.521 -10.6
       156    305.188    327.867     0.464     0.448 -73.5
       157    916.347    352.248     3.168     1.892  63.7
       158    382.351    329.049     0.924     0.547  25.3
       159   1583.912    334.873     0.774     0.688  34.9
       160    380.106    361.371     3.478     1.664  67.1
       161     46.261    354.707     1.902     0.680 -66.4
       162   1402.155    384.215     7.350     1.159  43.4
       163   1262.360    357.229     1.974     0.864  74.0
       164    441.133    377.905     9.515     1.504 -26.4
       165    186.104    347.451     0.948     0.657  29.7
       166    761.989    346.967     0.386     0.344  61.5
       167      7.500    517.455    12.195     1.484 -81.4
       168   1470.712    354.532     0.500     0.452  82.7
       169    469.863    443.132     8.231     2.018  86.8
       170   1015.333    383.510     6.066     0.507 -35.0
       171   1229.675    379.783     4.761     0.860  22.5
       172   1773.481    363.893     0.771     0.728  42.8
       173    990.553    369.349     3.270     0.556 -14.6
       174     48.451    365.257     0.761     0.752  73.5
       175   1890.871    373.469     1.907     1.021 -57.8
       176    504.335    393.023     4.034     0.958  53.4
       177    653.638    366.484     0.751     0.722  40.9
       178    911.025    384.127    11.526     0.519 -10.2
       179    472.777    386.179     3.208     0.405  44.1
       180    751.675    374.915     1.045     0.713 -52.6
       181    761.887    476.377    15.727     0.836  42.3
       182    819.567    373.905     0.678     0.619 -32.9
       183   1095.687    369.573     0.495     0.464  86.8
       184    323.509    413.563     5.856     0.727 -66.3
       185   1132.959    397.246     5.853     0.641 -32.9
       186     12.986    379.604     0.836     0.701  45.3
       187    620.241    374.520     0.506     0.446 -78.8
       188    344.645    390.204     1.512     0.193 -72.8
       189   1844.095    389.936     0.548     0.516  51.5
       190    844.798    425.386     6.676     0.817 -35.7
       191   2036.361    440.668     5.546     1.040 -69.5
       192    402.027    415.093     2.452     0.618 -38.1
       193   1109.432    410.998     1.014     0.900  86.0
       194   1785.816    410.085     0.702     0.665 -57.2
       195   1935.335    414.754     0.849     0.729  18.7
       196    695.474    436.777     3.457     1.288 -47.4
       197   1330.087    427.128     1.518     0.926 -70.3
       198    660.141    425.419     0.882     0.821  -1.9
       199   1468.585    420.517     0.572     0.493 -15.9
       200   1599.640    421.874     0.482     0.330  -6.6
       201    792.375    422.970     0.564     0.335   0.5
       202    794.768    427.059     0.535     0.420  82.8
       203   1517.385    428.826     0.582     0.571  77.7
       204    511.657    429.927     0.476     0.443  -9.6
       205   1227.523    431.857     0.499     0.350   0.1
       206    579.692    477.574     5.514     0.715 -61.4
       207   1601.675    470.701     3.609     0.805 -89.6
       208    456.336    439.609     0.488     0.472 -88.4
       209   1710.948    443.098     0.571     0.548 -42.6
       210   1178.737    452.900     0.782     0.724 -76.9
       211   1255.939    466.125     2.312     0.806 -48.7
       212    846.521    452.428     0.791     0.779  53.4
       213    230.820    450.167     0.621     0.534 -35.0
       214    653.866    455.660     0.534     0.487 -33.5
       215   1716.765    455.357     0.517     0.474 -75.7
       216   1860.144    466.853     1.649     0.972  11.6
       217    385.476    463.226     2.732     0.339 -11.5
       218    146.883    489.932     4.500     0.783  46.4
       219   1400.495    470.668     3.925     0.395   5.3
       220    503.207    491.973     3.603     0.531  69.8
       221   1865.464    536.190    16.695     3.811 -19.6
       222   1195.039    483.613     2.095     1.371   8.1
       223      4.350    473.479     2.683     0.276  -9.0
       224   1079.544    475.468     0.503     0.494  48.2
       225    639.379    480.868     0.485     0.338  -3.4
       226   1869.216    578.903    24.656     0.767 -22.8
       227    200.552    485.168     0.628     0.496  85.3
       228   1582.583    491.929     0.828     0.654  80.0
       229   1240.666    487.329     0.506     0.479 -40.2
       230    149.480    522.254     3.973     1.408 -85.7
       231    198.071    502.604     5.268     0.560  -9.1
       232   1890.308    490.581     0.592     0.540 -26.4
       233   1990.384    488.049     0.486     0.216  -0.4
       234    121.884    507.376     1.976     0.437 -85.1
       235    605.516    502.352     2.568     0.522  32.7
       236    131.142    497.294     0.832     0.602  76.3
       237     45.987    522.786     3.497     0.562 -69.9
       238   1260.427    498.325     1.056     0.732  -8.3
       239   1480.792    503.273     0.924     0.788  34.5
       240    872.232    502.176     0.498     0.479  82.7
       241    546.549    507.448     0.677     0.667  88.7
       242    764.804    518.335     1.559     0.798 -62.1
       243    676.775    516.070     3.455     0.725  11.2
       244   1048.407    541.400     3.288     0.496  61.9
       245   1760.042    527.337     2.171     0.733  24.8
       246   1098.339    523.405     0.768     0.668 -83.2
       247   1915.891    534.136     9.980     0.501 -11.1
       248    214.790    518.592     0.515     0.377  63.9
       249    392.963    529.109     0.984     0.847  39.1
       250    238.027    582.339     7.861     1.255  63.0
       251   1380.164    531.669     0.858     0.768 -50.6
       252    951.553    525.117     0.497     0.321   1.8
       253   1808.600    548.717     4.776     0.994 -13.0
       254    190.459    547.898     3.597     0.382   3.3
       255    149.194    543.497     0.718     0.633  -3.6
       256    601.857    546.578     7.413     0.550  -1.1
       257   1960.669    543.983     0.580     0.560 -68.5
       258    887.614    545.999     0.574     0.558 -36.3
       259   1798.871    556.214     0.605     0.595  37.5
       260    434.186    550.985     0.389     0.264   2.0
       261    967.063    556.265     0.687     0.672  58.8
       262    145.625    556.759     0.644     0.629  44.8
       263   1782.680    569.886     2.759     0.451 -65.1
       264    982.135    558.624     0.567     0.550  51.9
       265   1249.206    583.667     3.436     0.682  76.3
       266    249.176    571.231     1.151     0.724 -17.1
       267   1682.243    568.347     0.578     0.552 -77.9
       268   1767.546    567.197     1.062     0.490  84.5
       269   1128.136    574.516     0.985     0.892  80.8
       270    141.731    571.845     0.775     0.769 -19.6
       271    117.587    578.242     1.396     0.798  42.9
       272   1685.306    586.705     0.987     0.841 -32.1
       273    618.751    577.089     1.207     0.558 -31.9
       274    461.946    579.861     0.464     0.427 -83.2
       275   1055.028    580.921     0.405     0.375  84.5
       276   1982.792    588.482     0.718     0.709 -21.4
       277   1465.660    593.619     0.767     0.762 -89.0
       278    741.492    596.357     0.749     0.738 -74.0
       279    625.435    598.263     1.850     0.493  40.1
       280   1910.386    599.302     0.631     0.622   2.0
       281    681.099    602.217     0.874     0.574  22.3
       282   1194.551    626.091     3.439     1.596  44.2
       283    486.068    615.988     0.732     0.400 -65.9
       284   1568.230    615.482     0.709     0.502 -56.6
       285   1635.624    650.467     5.616     2.765 -39.2
       286    504.603    687.690    12.835     0.921  34.3
       287    484.010    626.695     2.274     0.534  -7.8
       288    321.888    622.886     0.538     0.523  60.1
       289    309.856    623.158     0.452     0.442 -12.0
       290   1751.342    620.988     0.555     0.308   0.0
       291    506.111    629.505     0.505     0.434  84.7
       292    249.912    671.451     6.065     1.133  61.0
       293   1753.532    635.203     0.772     0.565  -8.8
       294    847.039    632.842     0.559     0.490 -32.7
       295    993.126    641.441     0.633     0.354 -79.3
       296   1186.665    636.742     0.697     0.209  35.3
       297   1220.018    644.985     0.718     0.132 -90.0
       298    131.135    658.942    17.591     0.597   6.3
       299    658.340    647.651     0.754     0.720  54.1
       300   1335.667    651.153     1.751     0.315 -42.9
       301    206.467    723.735     8.728     6.841   2.2
       302    882.556    674.060     6.185     0.974  35.9
       303     71.730    668.076     3.075     1.303  14.7
       304   1753.318    660.805     1.337     0.526  18.5
       305   1172.065    671.964     0.785     0.247 -89.7
       306    281.161    672.989     0.467     0.331   1.0
       307    679.065    695.669     3.334     2.003  79.5
       308   1201.024    688.020     2.259     0.467  63.2
       309    753.667    722.036     6.749     0.919  41.0
       310    102.837    681.104     0.654     0.638 -74.9
       311   1710.239    680.087     0.666     0.643  -5.6
       312   1726.143    681.000     0.522     0.495  17.5
       313    549.450    686.106     0.776     0.669  49.8
       314   1556.244    759.006    14.320     6.240  18.4
       315    527.491    691.858     0.825     0.511  53.3
       316    751.566    690.930     0.510     0.459   4.4
       317   1315.380    744.285     7.000     0.516 -51.5
       318   1185.705    729.903     6.760     0.476 -33.6
       319   1896.505    703.319     0.623     0.604  68.1
       320   1546.034    699.308     0.462     0.182 -89.7
       321     71.960    708.607     0.787     0.611 -19.5
       322   1790.165    720.952     1.468     0.920  89.0
       323   1772.629    708.609     0.506     0.464  48.2
       324    550.033    739.836     9.061     2.141   7.4
       325    124.193    721.162     0.441     0.408  63.9
       326    488.494    743.595     6.611     0.486  26.9
       327     88.646    740.422     5.918     0.559  22.5
       328    587.168    735.108     0.455     0.449  23.4
       329   1056.290    814.467    10.799     2.529 -55.2
