#   1 NUMBER                 Running object number                                     
#   2 X_IMAGE                Object position along x                                    [pixel]
#   3 Y_IMAGE                Object position along y                                    [pixel]
#   4 A_IMAGE                Profile RMS along major axis                               [pixel]
#   5 B_IMAGE                Profile RMS along minor axis                               [pixel]
#   6 THETA_IMAGE            Position angle (CCW/x)                                     [deg]
         1   1569.603     66.202    39.895     0.881 -50.0
         2    941.666     78.195    14.911     3.408  67.8
         3    202.295     43.502    17.056     3.520  48.6
         4    267.461     35.514     9.232     0.518 -89.9
         5   1109.580     39.676    37.591     2.759   6.0
         6   1737.052     26.182     4.377     3.746   2.9
         7     26.151     20.555     1.138     0.640 -66.1
         8   1526.870     10.836     5.225     1.076 -89.4
         9   1129.469     13.896     0.890     0.785 -51.3
        10    871.451     17.180     1.980     0.882 -62.7
        11   1513.107      6.153     1.651     0.305  86.6
        12   1146.340      5.157     1.403     0.783 -75.8
        13    451.016      7.744     0.607     0.592  84.0
        14   1703.128      7.373     0.630     0.334 -82.6
        15    853.974      5.143     0.644     0.629  -8.7
        16    609.040      5.719     0.939     0.565 -53.3
        17   1866.415      1.000   173.144     0.289   0.0
        18   1116.514     16.385     0.741     0.721  49.5
        19   1299.713     21.061     0.762     0.735  56.1
        20    554.311     15.999     0.821     0.735  -0.3
        21    144.104     62.962     6.938     1.078 -52.0
        22   1526.498     49.528     4.216     0.601 -86.4
        23   1428.613     35.515     1.851     0.714  85.0
        24   1191.867     32.916     1.529     0.788  73.8
        25    425.439     27.483     1.088     0.835  -7.2
        26    661.939     31.638     0.741     0.658  27.2
        27      9.928     35.003     0.840     0.503  40.6
        28     16.351     32.574     1.196     0.207 -22.4
        29     93.824     40.896     0.710     0.691  40.4
        30   1384.942     38.075     0.523     0.478  51.6
        31   1758.899     54.404     3.087     0.624  42.5
        32      5.420     66.397     3.894     0.594 -45.6
        33   1220.043     39.234     0.493     0.371  39.1
        34    284.764     79.016     6.145     0.523 -34.4
        35     33.011     70.898     8.998     1.252  -4.9
        36    645.624     96.842     8.568     1.971 -31.0
        37   1226.466     84.323     2.118     1.150 -59.1
        38    331.088     72.391     0.745     0.699  73.0
        39   1090.552     87.694    10.635     1.337  -8.6
        40   1357.450     75.258     0.918     0.495  86.2
        41   1860.596     73.174     0.491     0.413  -1.4
        42    129.217    157.218    10.349     9.395  87.1
        43   1998.804     85.272     1.338     0.975   1.1
        44   1088.013    100.601    10.963     1.792   0.6
        45    439.280     79.218     0.588     0.569 -77.7
        46   1620.648     78.434     0.502     0.471  62.7
        47   1005.731     85.327     0.537     0.525  68.1
        48    422.874     98.662     1.595     0.696 -77.9
        49   1127.811    192.974    17.903     0.489 -50.5
        50   1526.000     88.382     1.184     0.289  90.0
        51   1942.140    247.684    23.273     3.180 -42.0
        52    186.881     95.291     0.482     0.398 -82.3
        53    656.063     98.377     0.734     0.714 -16.7
        54    270.303    121.950     3.590     0.568 -87.6
        55   1300.371    118.176     1.431     0.887 -73.6
        56    705.813    166.913     7.578     0.888 -75.3
        57    870.378    111.371     0.631     0.566  80.8
        58    410.024    148.926     8.600     0.706 -36.1
        59   1805.528    113.825     0.618     0.593 -56.6
        60    380.075    112.366     0.734     0.722 -15.3
        61    242.582    151.705     6.180     1.060 -46.3
        62   1246.490    116.896     1.112     0.614  15.4
        63   1716.490    118.324     0.675     0.650  86.9
        64    126.518    117.006     0.629     0.499  87.0
        65   1143.949    121.227     0.642     0.552 -18.4
        66   1577.640    127.577     0.686     0.677  68.7
        67   1311.719    194.896    10.219     2.909  39.6
        68   1661.163    149.879     3.840     0.736 -44.0
        69   1889.428    130.790     0.495     0.449  -4.4
        70    270.306    142.228     2.117     0.559 -80.4
        71   1224.385    149.132     6.242     0.557 -13.3
        72    942.792    143.203     3.715     0.514  10.2
        73    622.462    142.611     0.761     0.723 -55.0
        74    910.872    142.933     0.578     0.572 -89.0
        75    611.752    148.857     0.777     0.737  59.0
        76   1454.248    151.060     0.777     0.674 -67.2
        77   1432.080    156.595     0.777     0.730  43.6
        78     55.696    151.840     0.661     0.524  32.7
        79   1994.312    167.337     3.067     1.415 -47.7
        80   1722.822    153.950     0.581     0.454  82.1
        81    724.126    221.458    13.753     1.145  35.4
        82   1014.297    166.893     2.599     0.745  27.1
        83   1526.270    158.772     0.889     0.352 -70.7
        84    786.120    160.235     0.557     0.548  44.7
        85    328.610    175.302     1.273     0.721 -34.7
        86   1001.086    183.341     1.735     0.679  71.1
        87    371.424    169.024     0.663     0.608 -40.0
        88   1550.653    270.783    10.999     1.026  65.0
        89   1283.847    177.089     0.902     0.774 -43.5
        90    588.659    178.711     0.640     0.587  68.9
        91   2016.487    177.493     0.543     0.516  43.2
        92   1809.120    175.895     0.803     0.351 -11.8
        93    508.804    206.286     2.601     0.750 -78.6
        94   1516.728    186.081     0.447     0.305  -8.2
        95    681.686    188.969     0.550     0.547  80.5
        96   1009.708    197.959     0.898     0.770 -67.6
        97    175.136    201.070     1.219     0.819  -5.6
        98   1839.247    194.290     0.535     0.506  -2.4
        99     15.105    206.085     2.042     0.671 -32.9
       100   1428.760    199.567     0.740     0.719 -83.9
       101    534.507    197.157     0.501     0.382   5.2
       102    270.000    206.688     1.747     0.289  90.0
       103    962.851    210.055     1.194     1.026 -89.6
       104    478.386    203.387     0.755     0.740 -42.9
       105     49.377    202.401     0.619     0.302 -45.5
       106   1689.478    216.972     1.067     0.835 -71.8
       107   1025.862    205.420     0.526     0.293 -65.4
       108   1167.128    719.565    27.633     9.737 -78.4
       109   1815.539    214.086     0.589     0.558  54.5
       110   1517.824    218.506     0.657     0.625 -88.9
       111   1867.919    217.374     0.568     0.552 -29.0
       112   1698.628    223.389     1.860     0.494  29.2
       113   1366.239    304.453    11.567     0.500  55.0
       114    841.369    224.714     0.541     0.495 -65.9
       115   2039.985    228.264     0.654     0.313  89.3
       116   1380.047    271.229     5.018     1.263  82.7
       117    754.237    250.852     4.294     0.515 -39.2
       118    769.914    239.864     1.085     0.670  68.5
       119   1343.699    232.618     0.742     0.703  -4.8
       120   1089.907    229.729     0.468     0.409 -84.3
       121     52.166    230.006     0.470     0.458  -8.4
       122   1684.915    238.379     0.753     0.703  56.4
       123    543.311    276.386     7.294     0.825  34.4
       124   1603.046    244.399     0.983     0.941  13.7
       125    178.695    239.925     0.683     0.644  37.5
       126    161.846    242.794     0.551     0.441 -72.8
       127   1508.672    240.910     0.493     0.459 -14.5
       128   1445.147    239.302     0.460     0.353  84.1
       129    533.065    292.147     6.227     0.508 -75.9
       130   1027.673    245.979     0.551     0.322   0.4
       131    475.661    259.481     0.647     0.560  66.3
       132   1451.891    259.799     0.614     0.594 -19.3
       133   1041.201    352.858    16.835     0.535  31.9
       134    732.883    304.130     6.655     1.630  35.0
       135   1819.956    276.779     0.687     0.641  66.9
       136    705.275    276.171     0.638     0.585 -77.7
       137   1312.830    283.450     0.940     0.721 -82.0
       138   1128.490    287.612     5.074     1.076  14.2
       139     77.957    291.754     1.125     0.890 -84.4
       140    959.595    292.521     0.960     0.881 -71.0
       141   1212.715    285.394     0.631     0.619  80.5
       142   1237.419    280.323     0.498     0.463 -21.5
       143    782.693    308.341     6.554     1.743  25.1
       144    886.570    298.158     0.774     0.755  65.8
       145   1284.140    298.021     0.401     0.370  -6.5
       146   1246.119    299.066     0.703     0.423  25.6
       147    471.429    313.179     1.175     0.674 -83.3
       148   1537.978    310.673     0.842     0.807  67.7
       149    834.556    310.439     0.721     0.692 -13.3
       150   1398.916    398.652    14.597     2.854  52.6
       151    938.804    317.658     0.938     0.809 -35.3
       152    748.056    325.005     4.052     1.341   7.7
       153   1697.766    330.825     3.744     0.776  28.8
       154     35.796    321.632     0.512     0.451  84.9
       155    833.422    395.030    10.599     1.445  71.6
       156   1632.970    372.673     7.065     1.077  51.6
       157   1499.659    358.417     3.962     0.648  53.0
       158   1752.714    331.942     0.497     0.455 -15.5
       159    614.119    335.351     0.527     0.490  68.6
       160    438.574    351.540     2.900     0.682 -36.0
       161   1684.229    339.270     0.448     0.417 -69.9
       162    919.104    347.940     0.778     0.536  59.0
       163    513.897    416.583    11.457     2.783 -74.3
       164   1838.525    354.619     0.721     0.668  46.2
       165      7.658    516.201    16.070     0.917  89.9
       166    434.046    365.388     1.444     0.921 -44.9
       167   1994.982    364.770     7.942     0.548   6.2
       168   1038.255    363.056     0.742     0.652 -41.3
       169   1423.923    400.647     5.707     0.949 -80.0
       170    385.619    373.234     6.139     0.567  -5.1
       171   1025.243    369.169     0.548     0.516 -75.6
       172    186.464    381.675     1.729     0.535  42.6
       173    791.387    374.516     0.500     0.486  78.4
       174     58.814    384.940     0.607     0.387  85.4
       175   1574.242    393.146     1.969     1.038  40.3
       176    857.536    386.161     0.768     0.738  40.9
       177   1990.139    430.978     8.364     0.996 -45.4
       178   1453.224    404.606     2.662     0.551 -89.8
       179    353.167    390.158     2.162     0.426 -25.8
       180   1622.959    435.210     6.930     0.936  87.3
       181   1899.285    382.835     0.673     0.611 -23.1
       182    993.991    400.276     1.706     0.990  29.4
       183   1682.511    417.006     8.921     0.584 -25.2
       184     50.355    394.014     0.685     0.662 -85.7
       185    897.689    388.199     0.465     0.407  11.9
       186    103.626    395.648     1.131     0.855  18.4
       187   1937.216    393.217     0.561     0.547 -83.2
       188     87.653    406.242     5.268     1.317   6.3
       189    735.302    406.342     4.245     1.119  -6.3
       190   1854.471    548.126    37.987     1.034 -29.6
       191   1200.508    504.438    14.157     8.378 -55.8
       192    675.268    412.761     1.012     0.796  68.4
       193   1619.372    412.108     0.784     0.768 -63.3
       194   1633.518    407.871     0.516     0.362 -20.7
       195   1620.732    420.027     0.782     0.706  59.1
       196   1684.580    457.694     4.994     0.944  67.6
       197   2007.955    417.452     0.585     0.537   4.8
       198   1372.522    418.892     0.585     0.554 -40.3
       199    491.342    423.728     0.703     0.685  72.9
       200    830.964    426.062     0.709     0.382 -71.5
       201    806.101    436.206     1.207     1.036  -2.6
       202    794.818    426.986     0.514     0.386 -88.7
       203   1115.754    443.963     2.970     0.578  34.9
       204    528.874    440.638     1.909     1.285  48.3
       205    921.314    466.458     5.866     0.506  52.5
       206    933.767    432.063     0.610     0.594 -32.5
       207   2030.377    439.609     0.749     0.737  85.5
       208    956.788    569.905    14.923     0.512  85.4
       209   1601.682    470.690     3.592     0.822 -89.1
       210   1705.457    448.131     1.714     1.173   6.8
       211    710.698    443.952     0.751     0.657 -57.3
       212   1833.146    502.428    14.696     2.534  28.8
       213    177.330    443.111     0.473     0.421 -14.7
       214   2021.224    448.601     1.685     0.498 -14.8
       215   1264.609    449.932     0.862     0.812  18.2
       216      4.042    457.087     1.239     1.071  60.9
       217    231.780    451.795     0.635     0.612 -66.4
       218   2036.850    453.915     0.495     0.482 -54.0
       219   1380.140    456.951     0.347     0.284   2.1
       220   1019.507    472.060     2.531     0.810  28.6
       221    783.290    479.599     3.170     0.554  54.3
       222   1465.060    468.506     1.107     1.049  46.1
       223    484.705    487.301     3.148     0.825 -51.5
       224   1515.321    465.873     0.589     0.523  72.6
       225    620.084    467.596     5.365     0.494 -11.5
       226   1905.790    481.187     3.772     0.616 -42.2
       227    585.572    468.204     0.927     0.813 -10.9
       228   1490.743    475.741     2.240     0.564  30.6
       229    211.983    471.635     0.671     0.618 -30.6
       230    311.784    473.721     0.491     0.456  45.8
       231   1577.708    484.194     2.841     0.597  10.6
       232   1801.120    485.790     1.157     0.303  82.3
       233   1328.510    483.479     0.719     0.526  81.8
       234   1709.926    488.135     1.089     0.649 -72.0
       235   1749.804    488.791     0.731     0.609  70.3
       236   1741.045    508.353     7.923     0.646 -16.5
       237    680.749    491.503     0.712     0.685 -48.0
       238   1934.432    503.452     2.643     0.882  17.1
       239    176.209    501.526     0.975     0.792  76.0
       240     92.995    500.997     1.018     0.520  56.7
       241   1085.346    543.230     9.851     0.567 -34.9
       242    107.808    510.248     1.568     0.601  77.1
       243   1880.389    513.432     0.970     0.727 -89.2
       244   1118.669    514.801     0.610     0.564 -75.5
       245    825.947    521.165     2.397     1.018  60.2
       246   1644.633    510.643     0.668     0.654  14.7
       247   1465.584    515.798     0.688     0.622  76.4
       248   1457.626    529.409     2.184     0.474  87.4
       249   1423.480    521.308     0.963     0.800 -43.0
       250   1766.914    552.604     4.912     0.537 -70.8
       251   1769.193    522.413     0.707     0.665  69.0
       252    855.932    523.177     0.971     0.535  -5.3
       253   1801.929    524.459     0.538     0.514 -78.4
       254   1066.933    521.940     0.408     0.394  -1.9
       255    777.080    523.126     0.651     0.281 -87.9
       256   1152.428    549.503     2.951     1.813  55.0
       257    211.031    525.841     0.513     0.473  42.3
       258   1189.158    549.127     2.752     0.792 -51.9
       259    472.951    543.031     4.822     0.838   7.4
       260   1141.978    534.109     0.383     0.329  86.5
       261     48.194    537.402     0.684     0.637  85.3
       262    121.387    575.455     6.826     0.665 -43.8
       263   1256.323    544.872     0.996     0.712 -88.9
       264   1650.196    561.744     3.727     2.343  47.8
       265   1437.929    538.787     0.410     0.301  86.4
       266    711.048    611.140    12.582     0.547 -33.2
       267   1582.970    570.510     5.159     0.640  38.7
       268   2024.001    551.546     0.617     0.607  56.3
       269   1410.704    560.523     0.684     0.665  76.2
       270    627.177    553.642     1.588     0.410   9.3
       271    395.401    566.435     0.653     0.608  14.3
       272     61.992    568.290     0.659     0.608   0.8
       273    702.908    590.597     6.026     1.254 -15.0
       274   1840.999    584.614    10.836     0.482  10.9
       275    165.901    584.031     1.531     0.820 -72.7
       276    403.842    618.376     6.389     0.940  62.6
       277   1504.112    641.426     9.519     0.526  54.4
       278    776.645    581.541     0.775     0.639  65.8
       279   1545.953    589.737     1.393     1.008  48.2
       280   1635.860    605.303     7.209     0.501 -20.2
       281    342.045    758.681    22.739     2.990 -78.7
       282   1594.828    616.376     3.753     0.576  74.9
       283    583.944    590.481     0.589     0.525  62.2
       284   1191.842    600.213     0.886     0.706  53.7
       285    500.027    595.984     0.574     0.544 -65.1
       286   1092.918    605.136     0.844     0.768  -4.7
       287   1542.766    603.056     0.837     0.781 -64.5
       288    709.719    602.975     1.117     0.814 -42.6
       289     48.802    621.815    26.907     0.560   5.3
       290    886.684    598.648     0.556     0.528  33.6
       291   1601.183    606.156     0.535     0.521 -68.4
       292   1143.336    613.010     0.815     0.706 -31.2
       293    136.113    715.922    15.609     1.570 -46.5
       294    155.023    675.058    10.725     3.448 -41.4
       295    357.751    626.290     1.041     0.787  19.7
       296    344.779    627.371     0.721     0.666 -16.0
       297   1466.567    620.633     0.515     0.461 -37.7
       298   1837.938    649.038     8.127     2.470  -0.6
       299    811.264    628.143     0.727     0.491  44.3
       300     45.834    647.182     3.482     0.343  84.4
       301   1473.162    629.773     0.733     0.716  19.9
       302   1317.854    629.485     0.559     0.524 -15.4
       303    337.986    627.812     0.616     0.611 -36.9
       304    327.527    635.041     0.874     0.821  40.1
       305    920.763    635.127     1.151     0.343 -72.2
       306   1962.375    655.421     2.793     1.027 -72.4
       307    811.688    681.634     8.899     3.210  46.8
       308   1985.383    651.326     1.804     0.822 -87.6
       309    199.531    638.627     0.655     0.645 -39.5
       310    493.152    641.593     0.657     0.545  62.6
       311    873.078    650.292     1.483     0.513  24.8
       312    857.943    653.751     0.820     0.477 -64.8
       313   1433.923    652.155     0.663     0.628 -76.7
       314   1591.109    649.609     0.561     0.277 -73.0
       315    413.139    691.724     5.112     1.450 -69.7
       316   1976.366    666.767    11.151     0.917  -1.5
       317   1230.544    656.136     0.694     0.664   3.9
       318   1850.672    769.139    17.245     7.018  35.1
       319    159.631    658.117     0.483     0.384   3.6
       320    180.013    661.142     0.462     0.372 -88.6
       321   1077.874    664.362     0.513     0.510 -23.9
       322    536.322    673.485     0.705     0.686  24.8
       323   1255.608    674.867     0.488     0.391   1.4
       324    402.012    679.654     0.676     0.333  83.3
       325   1683.302    757.635    11.053     3.385 -51.4
       326    579.546    685.880     3.530     0.731  -2.5
       327   1113.920    685.401     0.701     0.644  86.7
       328    447.607    706.396     5.578     0.990  25.8
       329    437.479    686.555     0.681     0.596  83.9
