#   1 NUMBER                 Running object number                                     
#   2 X_IMAGE                Object position along x                                    [pixel]
#   3 Y_IMAGE                Object position along y                                    [pixel]
#   4 A_IMAGE                Profile RMS along major axis                               [pixel]
#   5 B_IMAGE                Profile RMS along minor axis                               [pixel]
#   6 THETA_IMAGE            Position angle (CCW/x)                                     [deg]
         1    776.673     58.031    14.037     0.654  26.6
         2     21.994     54.499     9.501     4.520  59.3
         3    331.762     40.799     4.445     0.552 -84.5
         4   1037.291     35.151     4.889     1.385 -41.0
         5    447.482     24.616     6.206     0.544 -29.9
         6   1627.060     14.453     6.078     1.487  76.2
         7   2005.861     17.499     5.249     1.065  31.2
         8     31.468     16.374     1.013     0.694 -13.6
         9   1526.551     11.350     2.301     0.645  85.8
        10    733.900     11.615     0.741     0.706 -22.9
        11    673.300      8.231     1.895     0.575  50.6
        12   1866.743      1.000   173.017     0.289   0.0
        13   1138.941     13.396     0.683     0.649 -71.8
        14   1506.948     19.364     0.790     0.521  42.7
        15    459.875     63.607     8.372     0.532  42.3
        16   1202.178     45.456     4.188     0.539 -43.7
        17     16.173     23.538     0.920     0.833 -89.2
        18   1504.218     30.113     0.791     0.757 -72.9
        19   1244.411     29.653     1.525     0.769   7.0
        20   1526.735     27.711     1.351     0.314  58.8
        21    548.055     34.253     6.447     0.899   4.5
        22   1026.096     32.798     2.275     0.526  -4.0
        23    843.039     28.092     0.408     0.348 -88.4
        24     19.080     28.785     0.915     0.332 -16.5
        25   1526.188     46.908     2.478     0.346 -85.7
        26      3.047     29.305     1.293     0.433  -7.4
        27      3.468     32.768     1.184     0.451 -31.7
        28    682.801     41.897     3.594     0.502  13.6
        29   1807.032     34.235     0.496     0.478  89.2
        30    569.978     52.732     4.663     0.672 -25.8
        31    360.587     58.421     2.784     0.505 -65.7
        32   1934.099     55.194     2.453     0.855 -65.7
        33   1964.810     43.562     0.663     0.642  20.2
        34   1514.764     48.472     0.989     0.892  65.3
        35    694.146     49.364     0.625     0.610  63.5
        36   1674.072     55.043     0.816     0.662 -86.4
        37   1438.010     55.053     0.767     0.736 -61.6
        38   1282.641     53.404     0.650     0.619  11.6
        39   1195.416    105.526     8.088     1.313 -46.8
        40    404.879     55.694     0.734     0.675 -66.9
        41   1608.944     58.787     0.827     0.645 -54.0
        42   1696.105     62.000     0.372     0.355 -17.5
        43   1526.688     57.272     0.859     0.365 -19.1
        44    247.038     71.884     1.112     0.696  84.6
        45   1736.259     62.164     0.488     0.438  29.8
        46    602.140     64.715     0.456     0.374 -85.4
        47   1745.017     96.252     5.883     0.984 -50.1
        48   1873.390     66.768     0.604     0.587  32.4
        49    860.081     92.718     7.788     0.871  21.8
        50   1526.842     82.254     1.942     0.775 -89.8
        51   1044.586     78.965     0.810     0.759  66.2
        52   1347.438     78.276     0.584     0.566 -84.4
        53    369.313     84.371     0.924     0.852 -83.2
        54    270.063    135.128     3.649     0.233 -88.9
        55   1620.568     78.358     0.508     0.466 -34.1
        56    518.406     92.517     5.505     0.567   2.2
        57    284.502     82.424     0.505     0.490 -33.6
        58    185.546    149.369    14.521     0.548  29.5
        59    233.582     87.376     0.528     0.490  68.2
        60    817.177    100.465     9.537     1.016   1.0
        61     63.291     91.352     0.611     0.582  73.5
        62   1844.353     89.268     0.522     0.519 -33.8
        63   2001.550     94.104     0.719     0.689 -11.7
        64    899.362    121.746     2.791     0.542 -87.6
        65    613.314    105.962     0.728     0.714  35.0
        66   1179.607    102.091     0.593     0.565 -48.3
        67   1072.469    103.167     0.553     0.521  77.7
        68   1357.431    103.872     0.506     0.460  -6.9
        69    450.080    179.249     8.459     3.318 -85.0
        70   1130.636    116.575     0.874     0.767 -58.6
        71    748.552    118.364     6.755     0.509  -3.9
        72   1526.737    115.523     1.396     0.227 -53.9
        73    661.982    159.169     7.599     0.539  24.5
        74    993.746    121.678     0.730     0.715  13.4
        75    977.933    130.211     0.736     0.718  77.5
        76    458.277    136.957     4.739     0.558   6.7
        77   1754.797    168.251     7.066     1.300  51.1
        78   1624.713    157.009     4.415     0.835 -57.6
        79    995.298    144.633     0.571     0.435 -51.4
        80   1048.308    200.000     7.272     2.163 -88.7
        81   2005.766    148.720     0.575     0.551 -72.5
        82   1109.577    148.412     0.667     0.653 -59.2
        83   1785.301    151.314     0.668     0.641 -49.0
        84    322.866    323.048    22.702     5.904 -87.9
        85     51.680    165.175     3.634     0.819  -8.9
        86   1987.949    157.959     0.411     0.396 -79.3
        87    722.794    182.593    12.998     0.501  13.8
        88   1462.064    207.658     7.213     2.362 -59.7
        89   1477.557    169.384     3.183     0.816  -0.8
        90    371.461    169.093     0.685     0.615  60.9
        91   1092.595    211.180     5.144     1.336  65.6
        92   1159.679    173.887     0.617     0.595  52.5
        93    287.371    198.371    10.314     0.501 -14.6
        94     66.327    172.265     0.621     0.173  43.0
        95   1438.230    221.322     6.595     1.951 -54.8
        96    134.940    189.933     2.254     0.524  34.1
        97    911.868    200.910    16.368     0.545   8.1
        98    416.157    183.731     0.579     0.561  37.7
        99    416.567    195.903     1.146     0.701  75.2
       100    461.838    198.185     1.765     0.781  44.0
       101   1188.380    198.170     0.741     0.698 -61.7
       102    646.977    197.756     0.440     0.287 -87.8
       103   1163.903    200.399     0.956     0.492   7.3
       104   1416.261    215.480     0.908     0.824  -6.9
       105   1163.004    766.546    64.499     0.062  90.0
       106   1962.221    208.868     0.423     0.391   5.5
       107   1801.900    217.921     1.671     0.603  27.1
       108    122.511    210.857     0.500     0.350   1.1
       109   1129.015    218.667     0.472     0.426 -82.8
       110   1569.397    224.449     0.570     0.536  60.0
       111    530.754    229.864     0.734     0.703  64.1
       112    978.638    225.586     0.494     0.479  72.2
       113     52.347    231.649     0.524     0.494  53.7
       114    178.686    239.960     0.686     0.667  86.1
       115    181.580    248.823     1.042     0.889  27.9
       116   1445.204    239.304     0.460     0.403 -86.4
       117   1337.411    282.420     7.740     1.440 -40.2
       118   1549.464    274.742     3.879     0.532 -80.4
       119   1833.150    247.025     0.459     0.328  -0.1
       120   1822.590    259.842     0.720     0.693 -58.7
       121   1560.240    258.894     0.757     0.415  60.7
       122   1965.275    266.967     5.727     0.545   8.7
       123   1526.788    262.396     1.079     0.625  65.0
       124    384.122    263.251     0.495     0.476  67.8
       125   1204.018    262.933     0.398     0.382   5.6
       126   1330.132    268.222     0.655     0.607  47.7
       127    742.906    276.456     7.843     0.509  -2.4
       128   1315.236    322.584     4.825     1.919 -87.6
       129    367.819    271.345     0.476     0.384  86.1
       130   1637.191    284.717     2.282     0.514 -16.4
       131   1307.386    282.992     0.778     0.328 -59.4
       132   2013.749    323.493     7.459     0.636 -44.4
       133   1209.285    286.115     1.045     0.597  66.1
       134   1500.183    283.670     1.066     0.500  46.0
       135    216.922    331.835    17.307     0.534  19.8
       136   1848.583    289.331     0.751     0.272  33.3
       137   1701.688    296.664     0.668     0.635 -44.8
       138   1199.657    295.944     0.489     0.445  12.7
       139   1128.858    305.155     0.843     0.680 -85.2
       140   1212.011    309.611     2.526     0.733 -15.8
       141   1246.017    299.183     0.535     0.355  22.4
       142    806.459    303.129     0.498     0.372   1.7
       143    863.922    330.825     2.835     0.685 -60.0
       144   1936.608    359.655     6.459     0.930  62.8
       145    605.810    316.305     0.709     0.703 -28.9
       146   1730.196    387.246     9.370     0.668 -68.3
       147   1132.411    347.150     6.418     0.388 -33.9
       148    119.279    317.915     0.626     0.614 -83.7
       149    333.458    325.170     0.754     0.503 -81.3
       150   1258.557    322.891     0.590     0.579 -48.8
       151    403.302    354.743     3.126     2.635   2.3
       152   1150.181    331.840     1.277     0.211 -44.1
       153   1064.487    333.153     0.505     0.410 -13.8
       154   1435.971    336.666     0.660     0.634  88.7
       155   1171.484    345.673     2.165     0.915   0.3
       156   1298.514    342.191     0.755     0.744  59.6
       157   1370.144    364.655     3.349     0.585 -72.6
       158   1781.285    354.223     3.135     0.813 -10.4
       159   1281.444    348.019     0.635     0.621  19.6
       160   1196.650    355.883     0.768     0.752 -87.4
       161      7.670    516.167    16.114     0.914  89.9
       162    808.592    363.332     0.896     0.718  30.1
       163   1141.197    357.831     0.670     0.603  39.7
       164    227.007    363.299     0.744     0.550  -9.4
       165    700.189    361.709     0.608     0.553 -31.7
       166    575.598    394.913     4.691     0.701 -89.6
       167   1065.920    362.192     0.607     0.588  71.1
       168    633.564    359.388     0.714     0.268 -50.9
       169    788.128    362.876     0.620     0.590  69.2
       170   1067.416    358.985     0.571     0.314  -0.6
       171     64.646    361.183     6.041     0.313  -2.2
       172   1760.600    381.515     0.719     0.606 -82.5
       173    599.439    377.018     0.496     0.414  -1.5
       174   1396.423    379.423     0.500     0.494  74.1
       175   1649.966    442.529    16.647     2.316 -21.3
       176   1435.593    436.591     7.710     0.529 -74.1
       177   1386.020    382.920     0.367     0.235  88.9
       178    297.835    398.701     2.041     0.832  70.0
       179   1346.940    406.211    15.785     1.271  -8.3
       180   1252.516    389.638     0.573     0.535  65.6
       181    115.188    424.291     9.133     0.996 -27.6
       182   1368.946    393.709     0.897     0.428  39.9
       183   1568.922    420.715     7.354     1.717  15.4
       184    403.286    410.269     0.995     0.928 -27.0
       185   2008.346    462.062    14.694     0.509 -25.8
       186    525.569    420.338     1.957     0.780 -27.6
       187   1943.964    416.554     0.627     0.620   9.9
       188    283.797    424.356     1.745     0.503 -86.9
       189   1260.351    432.608     4.790     1.140  29.0
       190   1735.317    424.073     0.947     0.874 -77.5
       191    831.000    425.936     0.473     0.405 -90.0
       192   1233.159    426.974     0.715     0.540  -7.3
       193    794.705    426.935     0.604     0.432  69.6
       194   1509.590    465.030     4.248     0.794 -75.4
       195    511.686    429.920     0.464     0.450   6.7
       196    618.379    448.037     8.184     1.473 -11.5
       197    195.266    441.190     0.744     0.732  24.4
       198    537.270    443.949     0.826     0.767 -70.7
       199   1601.686    470.771     3.633     0.821 -89.4
       200   1849.605    469.599     5.573     0.502  39.1
       201   1733.567    437.632     0.497     0.481 -15.8
       202   1335.738    437.480     0.511     0.426  67.4
       203    520.000    443.257     0.963     0.289  90.0
       204   1391.030    439.694     0.461     0.260  86.4
       205   1372.684    439.507     0.500     0.465  87.7
       206   1318.821    446.209     0.575     0.562  47.9
       207   1084.156    447.308     2.508     0.505 -11.7
       208   1451.379    474.118     2.743     1.290 -52.2
       209    513.211    467.322     6.025     0.579 -24.0
       210   1643.681    561.950    16.777     1.961 -49.5
       211   1674.297    511.835    10.381     1.817  42.6
       212    132.960    494.211     7.062     1.463  43.6
       213    220.090    454.152     0.398     0.356 -75.7
       214    163.384    459.988     1.334     0.631  21.9
       215    447.690    457.676     0.657     0.625 -88.1
       216   1319.738    460.628     0.817     0.815  77.3
       217    856.576    459.816     0.519     0.479  30.0
       218    340.988    532.012     8.373     1.617  69.6
       219   1389.627    476.659     0.507     0.505 -78.9
       220   1192.854    483.250     0.752     0.670 -70.6
       221    177.377    478.056     0.498     0.484  79.3
       222   1632.306    485.980     0.623     0.603  84.5
       223   1096.546    484.282     0.635     0.492  79.4
       224   1360.803    492.400     0.912     0.489 -33.3
       225   1649.266    500.433     1.332     0.845  32.3
       226   1261.532    497.827     0.632     0.620  88.9
       227   1607.639    512.524     1.022     0.698 -71.3
       228     43.993    508.696     0.564     0.534  89.6
       229   2009.079    510.578     0.570     0.545  21.9
       230   1197.407    510.916     0.651     0.623  -9.0
       231   1496.056    514.275     0.607     0.583  78.1
       232   1191.769    522.363     0.869     0.780 -36.8
       233   1544.011    527.628     0.922     0.710 -52.8
       234   1640.276    531.789     0.945     0.925 -62.1
       235   2022.776    527.894     8.601     0.614  -2.4
       236     91.853    589.992     9.056     0.545 -47.0
       237   2032.524    539.590     0.952     0.771 -69.1
       238   1700.258    535.130     0.959     0.840  48.0
       239   1872.084    532.728     0.729     0.710  89.9
       240   1778.073    540.226     6.375     0.502  -4.6
       241   1621.975    536.002     0.328     0.310   0.2
       242   1682.988    539.241     0.544     0.317  88.3
       243   1804.011    580.143     6.995     2.639 -68.1
       244   1164.987    552.781     4.319     0.502 -23.1
       245    241.483    572.347     4.168     0.489 -71.1
       246    171.921    545.860     0.359     0.269 -87.5
       247   1095.205    560.036     2.100     0.734  44.4
       248   1979.264    545.240     0.446     0.422  27.5
       249    254.005    548.400     0.494     0.259 -89.6
       250   1357.803    556.943     2.374     0.751   7.2
       251   1839.084    554.326     0.496     0.455  86.2
       252   1702.887    584.928     5.699     2.132 -31.8
       253    577.623    562.837     1.279     0.714  35.3
       254   1850.166    559.138     0.648     0.321 -69.3
       255    167.240    559.600     0.507     0.411 -67.1
       256    311.842    748.278    24.055     1.949  75.1
       257    349.920    567.947    10.185     0.525  -3.7
       258     34.835    562.009     0.641     0.605  -7.0
       259   1770.974    572.470     1.571     0.585  69.6
       260    475.802    581.237     1.529     0.758  76.0
       261   1499.738    563.592     0.492     0.440  87.5
       262   1218.509    579.516     1.428     1.022  24.1
       263   1819.387    568.759     0.578     0.293 -38.7
       264    166.781    570.625     0.485     0.412 -82.0
       265   1839.116    579.126     0.831     0.789 -79.7
       266   1786.181    579.138     0.699     0.672  63.2
       267   1480.224    611.416     5.063     0.894  81.4
       268    856.041    575.622     0.504     0.443  85.9
       269    181.580    587.261     0.886     0.770  83.0
       270   1614.099    588.184     1.320     0.783   9.4
       271    881.217    632.741     6.447     0.510  64.6
       272    351.140    589.996     0.710     0.662 -32.0
       273   1124.252    658.845    13.273     1.015 -44.1
       274   1014.425    609.597     0.963     0.745  85.1
       275    465.774    615.446     1.702     0.809  87.8
       276   1948.814    603.528     0.506     0.494  39.7
       277     64.608    613.161     0.921     0.855 -54.6
       278    478.268    605.981     0.529     0.319  -0.4
       279    312.588    609.167     0.580     0.576  87.5
       280   1500.139    614.660     0.964     0.669  35.3
       281    471.614    643.407    10.811     1.411  23.6
       282   1955.432    640.532     3.997     0.539  65.7
       283   1772.454    623.109     0.766     0.704 -58.4
       284    339.608    630.960     1.849     0.740 -71.5
       285   2018.481    623.069     0.619     0.592 -84.2
       286   1287.730    636.437     2.543     0.564 -45.7
       287   1561.487    625.568     0.551     0.540  64.5
       288     98.302    629.018     0.488     0.458 -79.1
       289   1807.653    630.738     0.557     0.547 -53.8
       290    396.432    648.602     1.636     1.062  46.7
       291     10.340    646.125     1.346     0.785  44.5
       292   1084.700    636.339     0.509     0.454  35.8
       293    219.352    652.871     2.326     0.587  61.3
       294    192.874    638.627     0.485     0.329 -83.2
       295    628.211    682.906    10.246     1.318  28.5
       296   1465.052    646.241     0.748     0.668  11.0
       297   1949.763    652.371     1.135     0.779  58.7
       298    742.272    647.484     0.631     0.573 -83.8
       299   1574.656    668.690     1.793     0.938  87.8
       300   1403.059    655.382     0.768     0.726  17.9
       301   1994.740    650.934     0.554     0.538 -83.8
       302    153.265    662.398     1.763     0.640  36.8
       303    255.802    668.223     1.359     0.872 -60.3
       304   1411.598    664.614     1.025     0.914 -12.1
       305   1093.971    655.269     0.529     0.333 -87.7
       306     75.306    710.006     6.050     0.627 -66.3
       307    431.061    734.160    16.055     0.568  32.9
       308    613.473    715.337     6.402     0.644 -75.1
       309   1946.098    662.899     0.602     0.573  49.0
       310    872.996    663.283     0.786     0.295  89.5
       311   1345.098    660.767     0.430     0.288 -76.4
       312    361.009    756.483    10.957     1.072  71.9
       313   1106.943    680.110     0.862     0.664 -33.2
       314   1912.475    670.199     0.500     0.399   2.6
       315    950.068    679.283     0.691     0.638 -49.3
       316   1291.039    680.513    10.068     0.543   1.1
       317    977.259    687.130     1.534     0.750 -32.6
       318   1239.400    680.781     0.529     0.471  55.9
       319   2007.129    684.087     0.650     0.635 -50.9
       320   1663.023    729.566     5.693     1.030 -46.6
       321    101.495    747.849    11.790     1.629  34.9
       322   1500.647    692.962     0.482     0.302   3.5
       323   1353.053    725.517     3.557     0.573 -69.2
       324   1571.318    704.135     0.838     0.790   2.9
       325    172.927    741.455     9.636     4.366  19.2
       326     35.487    711.089     1.247     0.563   5.3
       327   1453.106    707.354     0.605     0.275  75.1
       328    374.790    716.641     1.004     0.850 -15.0
       329   1159.166    711.205     0.685     0.622  15.3
