#   1 NUMBER                 Running object number                                     
#   2 X_IMAGE                Object position along x                                    [pixel]
#   3 Y_IMAGE                Object position along y                                    [pixel]
#   4 A_IMAGE                Profile RMS along major axis                               [pixel]
#   5 B_IMAGE                Profile RMS along minor axis                               [pixel]
#   6 THETA_IMAGE            Position angle (CCW/x)                                     [deg]
         1   1097.930    114.726    19.960     3.516 -76.2
         2   1145.412     79.060    13.833     1.673 -53.2
         3    792.743     57.401    25.673     1.649 -25.1
         4    199.341     22.227     7.483     0.549  74.1
         5   1451.240     17.985    11.710     3.313 -27.6
         6   1818.524     15.759    12.634     4.003 -29.4
         7   1526.000     17.818     2.033     0.289  90.0
         8    864.784     10.106     7.041     0.520  -9.9
         9    761.983      5.415     0.761     0.694  86.5
        10   1526.588      4.461     0.959     0.784 -59.7
        11    849.512      3.219     5.702     0.416  -1.6
        12   1866.165      1.000   173.249     0.289   0.0
        13    624.873     16.128     0.692     0.681  17.0
        14    465.645     20.062     0.791     0.764 -74.8
        15     31.679     15.757     1.641     0.527  15.5
        16   1509.501     44.517     3.812     1.108 -48.5
        17    649.313     33.022     2.410     1.045 -26.2
        18     26.978     18.004     1.383     0.668  22.8
        19   1480.226     32.188     2.045     0.754 -38.7
        20   1385.578     25.774     0.911     0.542 -22.8
        21   1582.106     91.331    15.127     1.688  25.8
        22    173.834     82.451     6.833     1.160  79.1
        23   1218.213     27.212     0.717     0.673  89.0
        24     12.633     28.647     1.318     0.965  29.1
        25   1327.527     34.799     0.837     0.802 -80.3
        26   1227.251    166.782    47.011     6.410 -15.5
        27    801.000     35.696     0.667     0.289  90.0
        28    154.785     37.628     0.744     0.739  -8.2
        29   1727.790     35.924     0.467     0.448 -14.5
        30    983.095     33.184     0.391     0.289  79.1
        31   1907.675     46.278     0.689     0.654 -76.7
        32    913.144     44.785     1.690     0.580   1.2
        33     43.055     42.876     0.590     0.582  37.0
        34   1118.098     54.897     1.447     0.821  61.1
        35   1526.930     45.980     1.022     0.561  47.1
        36   1028.102     77.358     5.633     0.846  28.5
        37    195.276     49.137     0.747     0.653  -7.6
        38   1670.167     63.855     3.049     0.382 -53.5
        39   1526.325     55.604     1.095     0.456  83.9
        40   1104.008     70.855     8.049     1.058   2.1
        41    652.799     80.167     4.886     1.565 -23.7
        42    892.745     63.127     0.571     0.526  -1.4
        43   1188.813     88.782     2.918     0.535 -74.4
        44    835.128     62.824     0.381     0.334 -85.9
        45   1526.243     73.450     1.184     0.260  72.8
        46    367.752     91.002    10.878     0.505  14.2
        47   1002.976     98.516    10.987     0.528 -12.4
        48    200.318    189.865    32.112     2.500 -18.8
        49   1620.583     78.437     0.502     0.487 -50.8
        50    725.714    244.242    22.636     1.241 -56.0
        51    246.857     82.541     0.649     0.498  -1.4
        52    740.959    107.463     2.147     0.842  83.6
        53   1357.282     94.696     0.668     0.638 -85.2
        54   1148.687     97.797     0.721     0.706  24.1
        55    675.959    109.659     4.440     1.081   3.1
        56   1402.805    101.945     0.727     0.703  47.7
        57   1715.923     98.374     0.580     0.528 -51.3
        58    250.701    139.145     4.129     0.735 -66.4
        59    324.873    105.852     0.500     0.476 -58.6
        60    270.142    121.983     2.645     0.332  87.6
        61   1601.664    111.584     6.508     0.528   2.7
        62    245.174    111.931     1.378     0.759  85.0
        63   1299.405    121.572     3.384     0.513  24.1
        64   1176.143    114.698     0.598     0.560 -77.0
        65    572.054    115.999     0.635     0.615 -73.0
        66    270.080    134.274     2.559     0.257  88.1
        67   1339.988    122.123     0.757     0.701 -35.3
        68   1869.131    126.075     1.144     0.868  -5.3
        69    912.445    130.495     1.257     0.835  23.1
        70    605.447    129.678     1.071     0.442  48.0
        71   1458.335    130.691     0.789     0.729 -75.7
        72   1429.861    126.850     0.585     0.492  79.3
        73   1177.779    133.909     0.895     0.872 -35.1
        74   1607.734    129.493     0.528     0.511  75.7
        75   1974.811    130.745     0.661     0.627  81.2
        76   1729.959    130.143     0.686     0.236  78.8
        77   1187.658    133.413     0.752     0.736  14.6
        78     83.959    198.316    16.032     0.579  32.5
        79   1905.687    138.172     0.795     0.761  62.6
        80   1103.388    138.772     0.702     0.679  31.7
        81    220.216    153.088     3.619     0.943  16.2
        82    992.380    164.868     2.085     0.699 -69.7
        83   1219.623    161.115     4.171     0.516  31.0
        84    686.265    147.800     0.641     0.597  36.9
        85    244.884    147.528     0.534     0.317 -84.0
        86   1655.118    196.419     6.841     0.586 -56.0
        87   1879.559    186.762     8.542     0.517 -32.1
        88     97.485    294.923    17.140     2.058  65.0
        89    270.000    217.125     4.950     0.289  90.0
        90   1547.402    166.002     0.667     0.639  67.5
        91   1297.804    190.061     3.350     0.514 -63.2
        92    793.753    176.003     6.906     0.582  -2.6
        93    655.500    169.079     0.830     0.633  -2.8
        94    371.439    169.055     0.676     0.636  36.4
        95   1569.398    193.757     3.207     1.669  55.7
        96    340.794    187.258     1.730     0.794 -64.8
        97   1037.831    184.493     0.875     0.851  69.1
        98   1492.584    198.436     1.152     1.093 -58.8
        99    997.298    264.799     9.330     1.167  80.9
       100     71.750    253.507     9.353     2.021  48.1
       101   1605.635    227.535     4.675     0.559  59.5
       102   1563.942    201.743     3.255     0.521   2.0
       103    690.465    205.803     0.794     0.733 -43.9
       104    105.257    200.579     2.566     0.359  -8.7
       105    634.492    208.575     0.680     0.644 -42.8
       106    826.003    206.161     0.551     0.528 -23.9
       107    663.555    213.122     0.638     0.621 -17.0
       108    163.244    226.552     1.208     0.907 -70.4
       109   1139.053    219.108     0.761     0.742  62.4
       110   1229.339    223.223     4.460     0.539  -8.7
       111   1225.645    218.379     0.608     0.442 -63.8
       112    130.580    248.407     3.478     0.772  75.1
       113   1299.564    306.080     9.318     1.180  65.2
       114   1090.063    759.455    80.095    41.889  27.9
       115    178.701    239.967     0.714     0.653  50.1
       116    391.686    256.149     3.737     1.168  41.4
       117    873.892    295.724     7.056     0.682  64.3
       118    193.084    252.090     1.537     0.575 -50.8
       119   1445.140    239.364     0.483     0.344  81.9
       120   1287.395    250.679     0.996     0.775 -47.5
       121    795.436    254.124     3.109     0.504 -20.1
       122    220.087    291.013     8.029     0.494  42.0
       123    482.398    261.203     1.225     0.924  85.3
       124     83.824    254.344     2.105     0.533  -8.6
       125    750.433    251.885     0.659     0.641  29.4
       126    632.057    263.900     0.985     0.872 -50.0
       127    607.372    259.261     0.698     0.647  48.3
       128    731.121    271.594     3.162     0.774  20.1
       129    608.072    296.691     7.098     4.447   8.2
       130   1469.639    262.828     0.481     0.376   4.6
       131   1790.826    269.051     0.699     0.631  39.2
       132   1289.041    269.281     0.720     0.550 -64.1
       133     11.478    289.664     7.702     1.328  18.2
       134    883.751    283.255     0.941     0.844  -1.6
       135    610.816    281.697     0.881     0.754 -87.7
       136   1909.512    291.370     2.327     0.853  -8.0
       137    395.021    287.267     0.697     0.661 -88.9
       138   2031.970    289.206     2.551     0.524   7.7
       139   1662.920    293.154     0.632     0.620  56.4
       140   1676.262    309.515     8.436     1.936  12.1
       141    376.961    293.085     0.466     0.351  -7.3
       142    303.696    313.769     2.860     1.311 -76.8
       143   1395.005    306.007     1.416     0.828 -72.7
       144    641.959    296.785     2.031     0.562 -11.5
       145   1245.936    299.183     0.722     0.358  64.8
       146    645.284    313.632     2.703     0.700  50.1
       147    361.854    356.536     7.602     2.460 -88.1
       148   1451.474    307.856     0.616     0.553  50.6
       149   1559.417    303.935     0.493     0.247   2.6
       150    982.782    311.780     1.713     0.556 -10.0
       151   1279.926    334.981     3.104     1.279  61.8
       152   1556.940    337.992    17.611     0.821  -7.8
       153    671.165    318.625     0.652     0.617 -12.5
       154   1950.638    341.623    12.187     0.540 -14.8
       155    924.096    366.508     6.293     2.225  75.8
       156   1149.529    328.039     0.499     0.419   1.5
       157    972.388    328.968     0.487     0.446   2.6
       158   1294.488    398.092     8.380     0.581  79.3
       159    862.993    332.019     0.501     0.495  27.6
       160    913.705    334.889     0.457     0.330   3.1
       161    121.491    334.392     0.500     0.488   2.5
       162    279.022    347.468     1.431     0.834  55.2
       163    817.246    338.959     0.505     0.493 -74.6
       164   1834.097    348.799     0.805     0.773 -33.3
       165    668.021    350.057     0.756     0.514 -16.9
       166   1048.712    352.697     0.997     0.487  16.7
       167      7.667    516.264    15.958     0.923  90.0
       168   1011.474    362.410     2.874     0.634  -3.1
       169   1242.811    361.092     0.391     0.328   0.2
       170   2001.940    371.025     0.993     0.866  42.4
       171    934.913    369.234     2.053     0.414  19.0
       172    481.669    403.684     3.623     2.068  34.5
       173   1231.800    386.981     0.757     0.692 -67.0
       174   1322.448    384.168     0.704     0.571  75.0
       175   1155.664    405.115     5.327     0.500 -19.0
       176    505.060    391.690     0.693     0.666 -79.3
       177    968.800    410.838     7.043     0.535  17.2
       178   1959.322    416.352    11.196     0.540  13.3
       179    914.382    421.178     3.723     1.603 -40.2
       180   1181.196    416.581     2.077     0.856 -88.4
       181   1186.643    401.691     0.708     0.654  17.6
       182    262.374    400.448     1.324     0.303 -27.7
       183   1709.646    430.494     3.389     1.275 -75.2
       184     85.597    407.547     4.712     0.589   7.9
       185   1330.982    407.074     0.781     0.772  -2.3
       186    256.266    421.151     4.549     1.007  13.9
       187    784.856    413.134     0.818     0.636 -36.9
       188   1183.281    437.288     3.616     0.871 -86.5
       189    603.228    411.499     0.832     0.613 -40.9
       190   1573.961    445.969     5.676     0.670 -40.8
       191   1118.848    421.012     0.648     0.632 -15.0
       192   1611.869    414.772     0.422     0.335 -79.9
       193    686.897    434.141     1.864     0.646  74.5
       194    474.848    416.095     0.363     0.288 -14.5
       195     92.334    427.442     0.825     0.806 -87.5
       196    858.920    417.116     0.322     0.271  81.8
       197    996.924    426.028     0.865     0.759 -78.6
       198   1269.257    442.476     2.884     1.374  45.2
       199   1285.895    432.068     3.929     0.567  13.8
       200    830.937    425.955     0.563     0.382 -69.2
       201    794.826    427.029     0.564     0.379  88.4
       202   1690.483    448.357    17.499     0.602  -7.2
       203    511.681    429.938     0.469     0.411 -12.1
       204    789.501    438.097     1.172     0.802  27.2
       205   1958.216    433.757     0.553     0.480 -81.6
       206    772.857    444.695     1.445     0.822 -36.9
       207    385.904    439.160     1.651     0.691 -29.0
       208     82.021    436.948     0.700     0.678  -4.4
       209   1748.371    440.324     1.597     0.474 -52.5
       210   1601.693    470.727     3.670     0.848 -89.1
       211    529.981    449.943     0.475     0.430  -1.5
       212   1544.426    480.120     3.520     1.907  24.7
       213    499.200    471.067     0.925     0.863  67.2
       214   1341.904    471.901     6.227     0.719   0.4
       215    372.890    475.500     2.831     0.550   6.3
       216   1441.672    470.469     0.499     0.470  87.5
       217   1416.804    480.430     0.864     0.823 -68.7
       218   1983.455    476.169     0.638     0.571  86.5
       219    329.497    482.440     0.884     0.564  53.6
       220   1258.648    489.887     1.424     0.811   6.1
       221   1511.712    484.232     0.504     0.496 -78.3
       222   1449.331    489.712     0.721     0.711  57.4
       223    106.357    488.681     0.550     0.532 -72.0
       224   1439.435    487.194     0.635     0.624 -89.3
       225   1302.922    501.596     2.219     0.924 -40.3
       226   1116.264    498.249     2.538     1.292   9.2
       227   1105.970    548.509    16.889     0.807  28.0
       228   1013.222    537.896     6.237     1.366  73.7
       229   1143.505    498.049     0.627     0.599  89.4
       230     51.780    496.206     0.929     0.499  24.5
       231    285.285    505.244     0.956     0.893  67.2
       232   1408.766    503.207     0.622     0.610 -73.6
       233    944.190    539.607     6.342     1.524 -41.4
       234   1117.150    541.321     2.690     1.435 -75.3
       235    205.275    518.885     1.409     0.715 -17.5
       236   1258.270    511.395     0.584     0.308  49.9
       237   1543.946    519.317     0.576     0.467  87.1
       238    675.585    524.492     0.505     0.499 -23.5
       239    859.519    538.225     1.124     0.993  67.0
       240    357.627    659.607    27.130    10.862  33.5
       241   1628.917    552.412     4.143     1.852  36.2
       242    807.183    565.763     3.787     1.268 -69.0
       243   1886.738    542.907     0.843     0.625 -28.5
       244   1418.362    551.114     1.260     0.622 -62.7
       245     18.706    558.804     1.943     0.520 -81.8
       246   1945.950    558.484     0.869     0.752 -83.6
       247   1131.258    554.554     0.497     0.475 -83.5
       248   1689.519    593.266    10.455     1.807 -19.1
       249    741.820    582.677     4.072     0.691 -55.2
       250    380.691    604.612     7.294     1.405  46.8
       251    606.946    563.628     0.504     0.475 -84.7
       252   1562.374    570.304     0.933     0.762 -33.3
       253   1290.030    673.971    13.175     3.258  87.8
       254   1526.598    572.782     0.618     0.537  77.3
       255    528.162    567.872     0.371     0.331 -13.2
       256    262.292    578.570     1.591     0.759 -45.2
       257   1853.919    578.199     0.643     0.634  24.0
       258    169.158    581.910     0.670     0.616  53.7
       259   1439.975    586.058     0.853     0.642 -74.4
       260    841.854    594.460     3.487     0.955 -28.9
       261    858.337    589.649     0.632     0.606  63.8
       262   1965.011    587.008     0.330     0.325  -1.5
       263   1651.333    592.391     0.678     0.609  86.3
       264   1744.918    593.459     0.758     0.746 -14.5
       265    510.128    591.292     0.460     0.358  81.0
       266   1157.838    591.778     0.665     0.559 -49.1
       267   1238.123    654.896     6.929     1.297  73.6
       268    828.074    594.162     0.368     0.262 -89.0
       269   1549.028    600.560     1.652     0.645 -10.6
       270   1593.409    673.680    13.751     3.258  34.7
       271   1993.811    604.182     0.414     0.374  49.2
       272   1990.390    720.824    13.289     1.474  76.4
       273    649.264    625.845     3.002     1.136  33.8
       274   1982.307    610.507     0.500     0.461 -87.2
       275    661.703    677.247     7.289     4.242  52.0
       276    291.555    619.832     0.680     0.680  50.1
       277   1440.396    636.774     3.612     0.581 -44.2
       278    417.257    623.598     0.755     0.744  38.1
       279    832.719    621.657     0.545     0.512 -61.7
       280   1770.023    636.389     2.324     0.775  52.2
       281   1656.222    639.508     1.692     0.522  -3.0
       282   1860.377    672.174     5.254     1.727 -53.3
       283    918.079    653.972     3.651     1.497  19.5
       284   1576.384    642.908     0.489     0.284   8.0
       285   1963.193    702.053     8.597     1.777  42.3
       286   1983.133    652.115     0.428     0.417  86.0
       287   1181.895    671.646     2.334     0.870  60.6
       288   1602.650    726.286     6.171     3.434 -65.7
       289     74.839    653.180     0.572     0.553 -25.9
       290   1499.198    684.977     4.403     1.176 -51.4
       291    179.919    669.431    15.443     0.519   4.3
       292   1454.736    689.556     6.507     0.500  31.9
       293   1700.140    664.066     0.782     0.755 -35.0
       294    646.355    660.089     0.578     0.559 -54.4
       295    742.749    698.688     5.542     0.569 -60.8
       296   1366.039    687.957     4.816     0.941 -61.1
       297   1330.556    661.911     2.533     0.300   2.8
       298    215.044    663.970     0.634     0.627 -39.2
       299    712.434    662.740     0.496     0.438   6.5
       300   1493.773    702.272     9.413     3.238   6.9
       301    499.898    668.573     0.539     0.521   4.2
       302     99.718    672.310     0.854     0.841  72.6
       303    359.449    694.823     3.900     0.502  56.8
       304    422.778    758.909     9.333     1.270 -79.1
       305    173.927    677.751     0.770     0.705  40.6
       306   1997.135    690.645     1.801     0.587 -28.0
       307    967.805    684.311     0.707     0.688  -5.4
       308    221.916    711.756     2.692     1.030  51.5
       309    346.570    697.659     1.288     0.884  56.1
       310    918.302    688.815     0.838     0.802 -18.0
       311    230.196    694.583     3.951     0.607  -1.1
       312    197.223    706.839     6.361     1.699 -13.6
       313   1337.344    734.917     5.775     0.801  71.4
       314    228.143    700.655     0.687     0.645  82.0
       315    239.586    698.956     0.494     0.248   4.4
       316     78.442    711.840     2.329     0.981 -49.7
       317   1431.955    793.391    10.664     1.333 -65.3
       318     84.199    723.729     2.686     1.165 -44.4
       319    260.978    722.113     1.815     0.877  84.0
       320   1274.606    720.828     1.402     0.886 -25.6
       321   1726.337    711.191     0.568     0.399  51.2
       322   1518.313    710.838     0.476     0.355  20.1
       323   1772.626    708.559     0.505     0.475  57.2
       324    323.383    716.836     0.791     0.619 -87.1
       325    111.518    720.906     0.791     0.762 -28.6
       326   1935.336    721.241     0.749     0.704  55.0
       327   2010.269    725.266     1.535     0.412  53.0
       328   1503.790    774.013     6.282     1.401 -78.7
       329   1807.695    747.003     3.237     1.078 -62.0
