#   1 NUMBER                 Running object number                                     
#   2 X_IMAGE                Object position along x                                    [pixel]
#   3 Y_IMAGE                Object position along y                                    [pixel]
#   4 A_IMAGE                Profile RMS along major axis                               [pixel]
#   5 B_IMAGE                Profile RMS along minor axis                               [pixel]
#   6 THETA_IMAGE            Position angle (CCW/x)                                     [deg]
         1   1526.388     24.821     4.219     0.553  89.8
         2   1540.411     15.918     4.228     0.553  30.1
         3   1394.226      8.379     1.801     0.815 -30.9
         4    854.897      8.275     2.071     0.665  34.1
         5   1462.142      7.681     0.536     0.415 -86.5
         6    833.211      6.683     3.124     0.288  51.1
         7   1526.782      4.201     1.197     0.793 -41.4
         8     38.284      5.287     0.868     0.359  69.8
         9    502.366      3.867     0.824     0.333 -62.5
        10   1865.896      1.000   173.340     0.289   0.0
        11    471.585     37.596     3.054     0.714 -73.7
        12     25.226     16.692     1.381     0.697  56.0
        13     28.491      9.486     1.253     0.198  21.8
        14    267.420     68.088     7.338     0.493  89.8
        15    467.120    158.324    39.317     0.572  26.1
        16   1697.793     23.345     1.539     0.877  26.0
        17   1810.477     21.447     1.128     0.619  32.9
        18   1833.156     20.666     1.177     0.772  10.8
        19   1685.084     45.240     7.895     0.537  22.0
        20    761.208    187.760    23.928     6.707 -86.8
        21    288.346     35.384     1.303     0.902 -47.2
        22    959.315     50.070     8.140     0.575 -19.1
        23   1694.126     33.072     1.333     0.509 -85.6
        24    794.869     35.821     0.718     0.667  67.6
        25    692.608     32.027     0.685     0.495 -86.0
        26      2.844     31.708     1.105     0.686  23.4
        27   1526.280     50.982     2.419     0.584  89.2
        28   1639.829     50.129     1.996     0.446  46.0
        29   2028.110     43.938     0.646     0.624   1.9
        30    142.319     92.699     6.086     0.896  61.0
        31    343.053     50.467     0.635     0.608  83.6
        32   1774.320     46.739     0.470     0.436  18.6
        33    665.758     91.987     6.865     2.839  -2.9
        34   1840.976     55.064     0.390     0.352  86.9
        35    518.040     62.560     0.637     0.594 -59.1
        36    864.624     76.422     4.164     0.659  30.7
        37   1677.734    108.334    10.403     1.571  33.5
        38   1012.023    174.564    14.352     4.638  88.9
        39   1415.202    100.134     5.164     0.688 -70.1
        40   1487.813     68.670     0.747     0.610 -34.4
        41    615.861     90.187     8.485     0.510  18.9
        42    717.086     81.124     0.938     0.856  81.6
        43   1587.804     82.120     9.828     0.518   3.7
        44    328.479    102.748     3.738     0.824 -67.9
        45    778.715     92.877     2.344     0.996 -50.0
        46    428.055     91.200     1.020     0.764  87.9
        47   1620.553     78.428     0.514     0.477 -43.1
        48    121.747     86.118     0.491     0.434  82.7
        49     55.730     95.034     2.738     0.864  -4.6
        50    541.069     88.007     0.405     0.386 -71.8
        51     87.982     93.106     0.633     0.615  27.8
        52   1225.068     89.537     0.504     0.242 -80.7
        53    836.093     98.375     0.547     0.546 -67.4
        54   1921.118     99.280     0.699     0.642  -2.2
        55    819.713     96.848     0.488     0.474  46.1
        56   1975.204    109.602     1.288     0.704 -83.8
        57      1.224    128.048     2.011     0.421  86.6
        58    270.000    114.488     1.170     0.289  90.0
        59      4.063    114.796     0.647     0.595 -81.8
        60   1311.394    142.846     3.993     2.158  30.9
        61   1526.239    120.568     1.139     0.415  84.7
        62    270.091    130.095     1.908     0.283 -88.4
        63    270.000    123.297     1.123     0.289  90.0
        64    323.694    126.306     0.723     0.697 -48.3
        65   1207.143    132.543     0.501     0.381 -89.9
        66    651.935    147.885     0.984     0.790 -60.2
        67   1496.282    137.870     0.452     0.365   8.9
        68    532.312    145.671     3.564     0.646   6.4
        69    807.316    144.258     0.617     0.433   8.4
        70   1962.282    194.948     5.396     0.871 -72.1
        71   1004.710    159.849     0.722     0.547  85.3
        72    348.598    165.197     5.966     1.009   0.9
        73    131.341    171.100     1.842     0.745  78.3
        74   1803.734    165.929     0.867     0.661  72.0
        75   1404.602    167.435     3.446     0.697   6.7
        76    572.604    162.588     0.669     0.643  10.3
        77    601.708    169.606     1.626     0.461  -7.5
        78   1776.486    240.521    11.125     2.695 -73.0
        79    705.975    171.372     0.643     0.572  30.1
        80    371.420    169.037     0.666     0.631  38.0
        81   1638.399    206.076     4.532     0.494  71.3
        82   1932.782    199.270     3.119     0.554  88.2
        83    570.584    179.320     1.177     0.353 -59.3
        84   1979.513    242.523    10.042     0.570  56.9
        85    526.933    177.759     0.446     0.346  87.6
        86    609.091    204.099     2.631     0.601  66.0
        87   1109.549    283.743    13.296     0.613 -62.3
        88    270.000    205.611     2.927     0.289  90.0
        89   1838.362    193.856     1.724     0.676 -12.2
        90   2020.183    189.299     0.458     0.387 -89.3
        91   1898.394    201.712    10.995     0.511  -4.4
        92   1681.311    225.483     3.112     0.718 -86.3
        93   1637.021    253.729     8.374     1.051  86.1
        94   2032.170    212.464     2.454     0.787 -37.1
        95   1962.923    207.901     1.944     0.815  -6.0
        96    788.165    204.858     0.496     0.484 -71.0
        97   1631.648    267.846     6.798     0.871  77.7
        98    918.750    295.749    62.327     0.714  -8.4
        99    626.996    217.488     0.712     0.685 -88.3
       100   1163.005    766.570    63.650     0.068  90.0
       101   1389.347    233.305     2.059     1.040 -57.7
       102     21.585    235.671     2.133     0.579 -54.1
       103   1738.688    225.388     0.681     0.667 -87.7
       104   1466.735    222.366     0.501     0.440  82.2
       105     58.097    222.671     0.527     0.376  77.9
       106   1495.868    229.025     0.484     0.363  64.0
       107   1243.999    240.924     2.539     0.517 -20.4
       108    178.701    239.963     0.707     0.658  62.3
       109   1918.738    236.965     0.466     0.418   0.9
       110   1011.237    242.504     0.659     0.654  -5.4
       111   1811.178    238.695     0.461     0.382 -84.5
       112    500.493    246.732     1.003     0.773  -0.4
       113   1445.146    239.328     0.473     0.349  79.4
       114    380.572    279.378     4.076     0.523 -69.3
       115   1941.513    254.883     1.007     0.776 -86.5
       116    475.103    248.307     0.599     0.576  89.5
       117    673.354    250.446     0.723     0.628  30.8
       118    560.079    278.093     6.351     0.950 -33.8
       119    992.814    255.592     0.686     0.632 -44.9
       120   1215.862    283.251    14.386     1.703  16.0
       121   1863.860    260.764     0.802     0.629  71.0
       122   1100.860    273.615     2.204     0.668 -65.3
       123    106.434    260.989     0.497     0.295  -5.8
       124    371.124    258.248     0.432     0.330  89.8
       125    315.752    263.143     0.432     0.356   5.8
       126   1843.847    268.197     2.520     0.546 -10.0
       127   1721.533    293.151     5.114     0.867 -23.6
       128    876.580    268.587     0.541     0.515 -46.3
       129   1602.025    314.145     6.181     0.575  61.5
       130   1374.992    347.118    11.372     0.590  55.3
       131   1063.963    277.996     0.355     0.343  20.1
       132   1616.931    277.387     0.487     0.254  88.1
       133   1808.298    282.339     0.514     0.480  37.3
       134    622.042    304.559     2.747     0.414  84.5
       135   1706.052    301.787     5.427     1.080  12.3
       136   1902.835    298.402     1.911     0.730 -44.4
       137   2000.610    367.589     8.816     0.820  70.7
       138   1679.363    318.801     3.672     0.738  52.1
       139   1913.569    307.124     2.011     1.468  17.7
       140   1246.000    298.989     0.389     0.373  -0.0
       141     86.315    302.421     0.668     0.600 -48.9
       142    741.193    301.044     0.674     0.431 -12.4
       143    450.379    304.337     0.611     0.599 -42.0
       144    955.139    302.891     0.571     0.537 -90.0
       145   1698.253    311.343     1.003     0.784  71.5
       146    649.754    321.215     0.850     0.805 -85.8
       147    139.834    322.085     0.784     0.762  38.4
       148    764.354    462.854    22.051     1.738 -52.7
       149   1040.381    322.075     0.638     0.622  72.8
       150      4.155    333.662     1.230     0.798 -74.0
       151    547.355    326.560     0.663     0.636 -83.5
       152    662.335    324.256     0.601     0.582  13.8
       153   1432.057    413.324    11.807    10.018  22.7
       154   1595.886    334.172     1.491     0.975 -44.3
       155   1096.070    339.438     1.903     0.966 -42.3
       156    749.216    341.233     1.552     0.738  64.7
       157    532.867    341.894     1.453     0.999 -49.3
       158     22.634    329.427     0.516     0.459 -51.7
       159   1049.851    356.684     7.870     2.993  -2.5
       160    861.817    338.553     0.820     0.789   1.4
       161    885.649    332.416     0.499     0.471 -62.5
       162   1199.086    338.904     0.501     0.393 -34.6
       163   1712.794    378.737     4.790     0.498  74.3
       164    921.412    380.739     8.002     0.919  32.7
       165   1924.358    365.416     2.035     0.478  88.9
       166   1077.246    353.116     0.751     0.739 -75.9
       167      6.024    522.736    10.575     1.251 -87.2
       168   1640.368    359.367     1.742     0.501 -39.3
       169    491.571    403.756     8.137     1.071  45.1
       170   1324.896    366.957     0.669     0.612 -63.3
       171    335.810    364.686     0.784     0.567 -54.7
       172   1870.699    365.135     0.659     0.648  17.3
       173   1978.356    437.283     9.470     1.803  75.8
       174    410.790    367.321     0.494     0.471  88.1
       175    528.739    410.584     6.601     0.508  36.0
       176     13.310    402.434     7.842     0.467  26.3
       177   1077.080    384.986     0.851     0.726  70.8
       178   1570.839    386.232     0.702     0.672 -53.3
       179    737.588    383.354     0.503     0.466 -33.7
       180   1801.900    458.411    11.401     0.530 -44.2
       181   1374.680    426.330     7.379     0.521  40.2
       182     67.549    438.738     7.488     0.673 -47.7
       183   1159.164    395.792     0.716     0.672  30.4
       184   1291.919    412.796     1.630     0.602 -72.1
       185   1179.826    401.565     0.507     0.439  74.6
       186   1026.285    535.006    15.965     1.185  58.3
       187     82.524    431.396     2.274     0.629  80.7
       188   1268.365    421.990     1.294     0.750 -55.9
       189   1183.850    417.243     0.630     0.567  28.2
       190    712.196    414.208     0.439     0.360 -48.2
       191    650.778    439.412     3.440     0.569 -34.6
       192    794.901    427.209     0.837     0.414  62.2
       193    831.063    425.937     0.541     0.242  89.0
       194    163.658    433.157     1.542     0.659  14.1
       195   1034.040    428.825     0.881     0.315  33.8
       196    517.750    434.655     0.759     0.742 -65.7
       197    511.686    429.940     0.494     0.438  -7.6
       198   1104.952    434.019     0.593     0.560  54.1
       199   1601.673    470.768     3.573     0.853 -89.3
       200    533.303    440.472     0.721     0.699  85.1
       201    288.356    440.382     0.754     0.580  23.6
       202   1119.388    441.872     0.567     0.478 -72.0
       203   1555.681    459.392     1.843     0.651  72.5
       204   1031.438    455.466     0.781     0.758  62.8
       205    182.078    453.388     0.809     0.777   2.1
       206   1862.114    452.347     0.520     0.476  46.2
       207    885.739    459.373     0.637     0.628 -85.2
       208   1127.219    468.298     6.069     0.528  -6.0
       209   1478.862    494.334     3.203     2.006  73.5
       210   1173.146    474.855     1.498     0.880  22.1
       211   1085.275    464.691     0.470     0.438  59.9
       212    951.862    482.990     0.808     0.727 -19.1
       213   1154.573    504.045     4.431     1.250 -37.0
       214   1079.313    477.839     0.557     0.535  41.7
       215   1954.744    484.239     0.929     0.506  87.4
       216   1088.454    495.003     2.586     0.647  16.6
       217   1924.334    479.372     0.591     0.327  46.3
       218   1906.541    488.193     0.933     0.785 -74.1
       219    765.070    488.285     0.662     0.593  71.0
       220   1188.094    485.972     0.612     0.607 -14.7
       221    522.502    502.010     0.882     0.851 -67.6
       222   1502.844    499.660     0.712     0.634  89.2
       223    411.778    500.620     0.739     0.705 -68.9
       224   1761.886    503.299     2.512     0.622   4.0
       225   1509.773    503.135     0.547     0.522 -59.7
       226   1363.764    507.642     0.684     0.674  35.8
       227     80.596    605.476    18.527     0.917 -38.4
       228    990.432    524.234     1.512     0.826 -37.4
       229   1292.941    515.064     0.335     0.327 -62.5
       230    797.209    512.336     0.472     0.407 -89.4
       231   1444.718    515.828     0.589     0.580  22.9
       232    480.757    526.406     2.054     0.703 -25.2
       233     79.737    551.591     4.550     0.529  57.2
       234   1167.612    523.891     1.029     0.749 -40.2
       235   1981.098    530.636     2.406     0.564 -16.3
       236   1178.423    528.234     0.598     0.539 -74.1
       237   1764.637    583.248     7.016     1.420 -77.7
       238   1634.728    528.472     0.681     0.676  34.4
       239   1639.302    525.568     0.496     0.459  83.4
       240   1030.850    525.082     0.357     0.275  -1.8
       241    426.923    551.258     6.221     0.921  16.8
       242    311.655    544.572     1.421     0.758  76.7
       243   1646.142    581.288     6.094     1.052  40.4
       244    565.519    532.993     0.605     0.550  86.5
       245   1087.344    544.950     6.924     0.940   2.2
       246    374.555    564.179     2.954     0.997 -72.1
       247    317.597    555.870    18.626     0.849  -2.3
       248     20.405    594.828    15.198     0.553 -23.6
       249   1064.240    553.054     0.957     0.763 -68.9
       250   1721.395    556.562     1.037     0.571  86.0
       251    573.754    548.961     0.513     0.490 -59.2
       252   1413.275    579.180     7.199     0.942 -30.9
       253    620.788    548.129     0.421     0.320  21.5
       254    473.000    552.964     0.587     0.488  90.0
       255    366.607    556.923     1.228     0.609 -10.8
       256    988.478    554.872     0.749     0.338  55.1
       257   1744.488    556.122     0.607     0.600 -38.0
       258    644.492    566.228     0.932     0.834  13.2
       259   1422.266    564.781     1.025     0.715 -20.0
       260   1861.162    566.921     0.606     0.573  67.2
       261   1009.831    564.877     0.445     0.414 -74.9
       262    367.071    564.987     0.501     0.458  56.8
       263    463.691    598.046     6.285     0.965 -34.1
       264   1861.138    579.485     8.932     0.626   4.7
       265   1589.179    578.082     0.711     0.567  42.0
       266    445.906    578.774     0.419     0.291 -86.9
       267    758.513    588.111     0.883     0.643 -29.4
       268    585.648    586.155     0.518     0.337  23.0
       269    545.517    591.879     1.662     0.574  -6.7
       270    733.483    590.838     0.542     0.525  14.1
       271    748.957    591.801     0.451     0.394 -89.4
       272   1510.039    650.187     6.460     0.553 -60.2
       273    717.957    599.399     0.496     0.225  83.9
       274   1368.563    603.727     0.759     0.728 -29.9
       275   1339.104    627.853     2.758     1.027 -56.3
       276   1695.630    608.728     1.509     0.463  21.2
       277    475.800    625.388     2.995     0.949  32.0
       278   1457.054    616.644     1.111     0.504  52.5
       279   1841.213    613.357     0.571     0.471  32.5
       280     65.188    626.763     1.612     0.703  59.2
       281    732.469    613.574     0.503     0.491  34.0
       282    422.308    622.551     0.838     0.772   8.6
       283   2031.232    624.217     0.950     0.799 -34.1
       284   1586.942    684.714     9.410     1.088 -73.9
       285    446.807    635.868     0.694     0.662  45.8
       286   1609.202    637.745     2.327     0.660   7.2
       287    127.597    637.174     0.667     0.652  80.0
       288   1468.722    636.720     0.531     0.528  35.0
       289   1068.726    653.714     3.704     0.543  23.6
       290   1363.933    656.468     1.090     0.819 -88.8
       291   1467.698    654.933     1.054     0.629 -79.6
       292    207.454    670.289    12.138     1.171  -2.6
       293   1708.911    654.879     0.554     0.544 -50.5
       294   1406.092    664.143     0.975     0.807   4.6
       295   1680.522    664.991     0.861     0.765  35.7
       296   1079.448    673.836     0.641     0.619  31.2
       297   1646.102    690.669     7.939     0.586 -11.9
       298    375.185    705.120     4.444     0.564 -54.4
       299    586.398    683.888     0.729     0.686 -57.3
       300   1251.258    678.903     0.661     0.638   4.6
       301    482.944    678.748     0.517     0.490  74.1
       302   1793.218    741.081    24.318     2.990  14.2
       303    968.095    682.334     0.638     0.608 -43.3
       304    497.235    706.698     4.514     0.516 -39.1
       305    973.664    712.091     5.322     0.503 -40.0
       306     64.313    686.164     0.467     0.436 -18.8
       307    507.927    690.947     0.641     0.639  29.2
       308    246.974    689.811     0.425     0.262 -87.5
       309   1078.278    698.154     0.614     0.594 -64.9
       310    178.902    705.787     2.478     0.549 -13.6
       311    956.050    707.689     1.513     0.713  43.3
       312   1772.585    708.569     0.530     0.455  46.0
       313    302.884    712.409     0.582     0.458  31.6
       314    673.445    720.755     1.683     0.776 -27.5
       315    464.414    729.429     5.259     0.491  12.0
       316    627.455    726.154     0.775     0.698  72.6
       317   1006.819    797.768    20.472     0.531 -26.3
       318    161.639    733.342     0.738     0.720  60.1
       319   1097.288    735.306     0.712     0.688  56.3
       320    644.579    740.873     0.976     0.680  37.8
       321   1004.196    739.763     0.617     0.605 -65.8
       322    281.573    736.544     0.534     0.456  46.3
       323    820.109    748.153     2.530     0.736 -18.3
       324    217.099    747.527     0.845     0.820  42.6
       325   1997.534    756.152     7.187     0.556  -2.2
       326    361.856    756.962     0.935     0.338 -83.7
       327   1790.802    757.628     1.131     0.536 -50.7
       328    708.289    757.827     0.791     0.781 -85.9
       329   1768.026    761.132     0.943     0.541  11.4
