#   1 NUMBER                 Running object number                                     
#   2 X_IMAGE                Object position along x                                    [pixel]
#   3 Y_IMAGE                Object position along y                                    [pixel]
#   4 A_IMAGE                Profile RMS along major axis                               [pixel]
#   5 B_IMAGE                Profile RMS along minor axis                               [pixel]
#   6 THETA_IMAGE            Position angle (CCW/x)                                     [deg]
         1   1526.351     24.893     5.861     0.519  88.6
         2   1577.452     12.772     1.315     0.861 -85.4
         3    473.514      6.797     4.755     0.751  20.7
         4   1314.042      6.477     0.528     0.486  88.7
         5     39.565      6.435     1.605     0.289 -45.0
         6   1867.101      1.000   172.890     0.289   0.0
         7    769.220     35.095     7.376     0.647  19.2
         8    270.879     11.361     0.502     0.446 -80.5
         9   1112.137     15.490     0.721     0.696  76.1
        10    786.861     25.411     0.727     0.662  52.3
        11   1865.724     19.968     0.493     0.346 -36.4
        12    395.020     18.764     0.473     0.437  86.0
        13   1526.378     44.134     3.252     0.646 -89.3
        14    802.028     44.431     2.889     1.735   0.3
        15    297.908     38.768     1.543     1.110 -60.8
        16    408.308     29.543     0.796     0.636 -87.2
        17      6.719     29.721     1.775     0.789 -36.8
        18     28.622     26.938     1.094     0.474 -27.8
        19    809.062     67.952     4.484     0.817  71.8
        20   1756.631     39.750     0.974     0.853 -58.0
        21   1920.060     31.969     0.608     0.575 -46.3
        22    774.280     59.237     5.574     0.929 -31.5
        23      7.539     37.040     0.807     0.309  58.3
        24   1826.200     63.949     4.549     1.089 -35.0
        25     72.296     42.404     0.564     0.536 -71.6
        26    844.770     98.899     9.659     2.016  28.0
        27   1857.822     49.351     8.203     0.533  -0.7
        28   1233.045     48.379     0.644     0.621  85.7
        29    713.834     59.426     0.856     0.641  74.4
        30    457.212     78.191     2.616     0.580 -57.4
        31   1929.515     64.156     4.447     0.551  -0.6
        32     28.844     89.440     1.902     1.862 -44.5
        33   1391.434    125.377     9.501     0.737  45.6
        34   1705.184     71.688     6.110     0.597   2.9
        35    725.165     78.388     2.712     0.788  21.5
        36    474.050     73.983     0.394     0.389  74.5
        37   1759.074     91.495     2.638     1.434  33.2
        38   1620.675     78.464     0.581     0.484  22.1
        39   1254.771     94.801     2.092     0.984  11.8
        40   1023.888     93.010     1.814     0.519  18.8
        41    152.187    100.603     2.377     0.765  -6.2
        42   1526.401    109.316     2.502     0.484 -88.3
        43   1841.256    134.623     5.319     0.600 -59.4
        44    591.567    114.061     6.580     0.635  13.2
        45    270.115    118.280     2.190     0.296 -86.8
        46   1240.313    108.488     2.288     0.333  13.9
        47   1701.201    110.825     0.641     0.632  43.3
        48   1785.954    113.068     0.633     0.488  73.5
        49   1357.234    165.332    14.387     1.294  20.8
        50    498.880    246.298    22.800     5.869  56.2
        51   1909.760    117.876     0.653     0.647   5.0
        52   1280.078    135.160     6.058     1.055   7.7
        53    590.629    163.610     4.539     0.717 -79.1
        54    503.869    170.887     7.261     0.728 -55.4
        55    529.081    132.143     1.090     0.855 -60.1
        56    862.482    130.221     0.852     0.827 -41.0
        57   1818.666    127.280     0.628     0.621  63.3
        58    204.991    157.485     5.349     1.019  43.3
        59   1451.795    138.805     7.086     0.539  -5.4
        60   1948.646    131.433     0.657     0.207 -46.2
        61    129.570    197.659     7.418     2.539 -81.4
        62    307.526    140.203     0.499     0.443   0.6
        63   1329.368    146.839     0.942     0.858 -82.3
        64   1991.129    156.736     1.516     0.716 -74.0
        65    154.001    148.476     0.846     0.779  39.8
        66     94.332    151.683     0.888     0.550   2.3
        67   1758.793    151.202     0.650     0.608 -69.7
        68    270.140    208.765     3.182     0.340 -88.8
        69    856.308    169.405     3.939     1.122  20.2
        70   1515.674    153.975     0.614     0.421  62.5
        71     96.107    164.336     1.172     0.923 -67.7
        72   1065.982    166.427     0.613     0.582 -18.2
        73    583.017    172.603     1.492     0.678 -37.4
        74    948.479    173.690     0.754     0.714  50.9
        75    371.409    169.080     0.690     0.643  83.8
        76    463.556    198.186     1.765     0.668  85.9
        77   1539.976    189.660     1.191     0.546 -29.9
        78   1032.844    212.935    10.987     0.517  18.3
        79   1755.286    205.527     0.597     0.545 -86.4
        80    950.927    213.411     1.056     0.792  -2.0
        81   1624.902    205.970     0.627     0.533  57.4
        82   1590.472    228.210     3.589     1.063  39.0
        83   1720.099    226.017     1.139     0.386 -75.8
        84     58.096    224.393     0.729     0.532 -65.6
        85    888.802    225.094     0.630     0.621 -70.6
        86   1732.430    228.770     0.778     0.713   0.0
        87   1163.013    766.469    62.624     0.127  90.0
        88    942.376    243.351     3.894     0.835 -31.8
        89   1162.789    233.232     0.897     0.818  14.2
        90   1697.038    231.032     0.355     0.312 -67.1
        91    455.570    244.565     1.937     1.124 -59.1
        92    778.422    236.942     0.761     0.749  87.7
        93   1944.651    275.317    13.066     4.720   2.7
        94    178.684    239.932     0.711     0.654  44.3
        95    438.753    246.741     1.557     0.843  33.2
        96   1445.135    239.344     0.475     0.342  88.6
        97    981.054    253.390     1.288     0.499 -69.8
        98   1081.067    261.118     1.368     0.773  89.1
        99    714.535    258.902     1.404     0.522  63.8
       100    487.805    255.554     0.601     0.552  77.3
       101   1019.583    273.290     3.615     1.019  32.6
       102   1308.551    255.848     0.525     0.504 -46.3
       103    151.074    305.776     8.519     1.024  46.8
       104   2004.429    266.722     1.272     0.822 -30.6
       105   2012.008    266.329     0.883     0.834  -8.3
       106   1909.988    259.513     0.564     0.498  10.4
       107    419.896    340.983     9.235     0.660 -81.8
       108   1924.900    264.600     1.082     0.219  24.4
       109    285.402    284.423     2.729     0.584  40.8
       110    475.755    273.953     0.456     0.435  41.1
       111   1574.783    286.664     3.692     0.733  29.3
       112   1056.650    276.879     0.544     0.517 -80.4
       113    434.534    300.021     3.650     0.602 -36.3
       114   1429.038    328.297     9.000     1.779  25.7
       115   2015.608    294.240     0.723     0.692  43.5
       116    857.666    294.157     0.698     0.675 -60.4
       117   1895.871    298.978     1.382     0.284 -39.6
       118    374.429    294.054     0.639     0.599 -63.3
       119   1544.234    295.902     0.633     0.620 -21.6
       120   1245.897    299.057     0.486     0.303  87.7
       121     32.685    305.381     0.573     0.482 -51.0
       122    909.550    310.315     0.573     0.571  -0.5
       123    300.712    315.633     0.567     0.550 -64.4
       124   2011.227    336.936     3.381     0.491  58.5
       125    124.587    336.787     2.390     0.435 -84.4
       126    455.557    426.286    11.475     2.662  82.0
       127    364.981    322.569     0.783     0.385  48.0
       128    940.270    330.821     0.632     0.599  78.4
       129   1361.631    330.956     0.550     0.528  68.9
       130    380.189    351.360     4.065     0.743 -13.6
       131     24.352    349.599     2.662     1.130 -17.2
       132     57.783    378.012     8.877     0.481  28.9
       133    648.748    342.278     0.449     0.433  74.8
       134    651.334    346.074     0.617     0.600 -17.9
       135   1054.127    361.109     1.671     0.819 -75.2
       136      7.675    516.364    16.029     0.918  90.0
       137    106.363    358.437     2.682     0.508  -6.6
       138   1154.429    354.968     0.540     0.488  69.7
       139   1094.255    371.412     1.044     0.773  -5.6
       140   1673.009    365.336     0.488     0.295 -85.3
       141   1021.027    377.839     1.545     1.104  -7.1
       142   1177.416    372.313     0.776     0.704 -37.8
       143    145.608    374.791     2.368     0.537  -0.3
       144    252.123    386.303     1.281     0.849  28.7
       145   1336.284    399.009     3.790     0.497 -52.4
       146    598.206    390.555     2.941     0.745  37.5
       147   1099.407    383.340     0.584     0.527 -74.5
       148    617.828    378.204     0.538     0.391  15.5
       149    712.193    389.980     0.673     0.582  58.2
       150   1387.446    390.113     3.839     0.593   6.4
       151    426.918    394.572     0.754     0.728  39.8
       152    942.106    396.031     0.627     0.590 -62.1
       153    387.581    410.628     3.027     1.903 -11.3
       154    957.315    396.572     0.626     0.533  52.7
       155    870.157    543.374    10.399     1.082 -52.7
       156    585.371    422.054     7.187     0.550 -24.4
       157   1870.907    436.153     5.351     1.249  67.6
       158   1543.159    399.878     0.365     0.328   3.2
       159    978.537    511.210    17.501     2.038 -44.1
       160   1893.319    405.951     0.588     0.312   3.1
       161   1022.148    425.942     2.956     0.609 -46.1
       162     52.014    414.028     0.759     0.719 -52.5
       163    414.914    422.324     4.843     1.139  -4.4
       164    999.864    411.504     0.500     0.422 -89.6
       165    831.088    426.111     0.753     0.381  67.2
       166    690.794    473.053     8.366     1.660  45.1
       167    740.748    430.893     0.746     0.649  65.1
       168    794.823    427.064     0.581     0.381  86.6
       169    511.694    429.985     0.506     0.441 -16.2
       170    129.877    441.606     1.332     0.710  46.7
       171    218.682    436.762     0.554     0.538 -73.4
       172   1601.675    470.732     3.646     0.819 -89.5
       173    831.455    449.573     0.786     0.772  42.3
       174   1535.267    448.387     0.811     0.669  74.4
       175    889.400    461.013     1.220     0.946  88.8
       176   1753.291    468.121     3.476     0.879 -44.6
       177    622.529    459.293     0.500     0.460   8.9
       178    522.715    458.981     0.578     0.514  67.5
       179   1902.334    468.619     1.384     0.737  57.4
       180   1217.828    465.014     0.461     0.452  -2.4
       181   1849.410    479.985     2.530     0.884 -18.0
       182    935.640    469.872     0.506     0.473  12.6
       183    562.793    478.614     1.662     0.375 -62.5
       184   1900.407    481.101     1.636     0.563 -37.8
       185   1685.739    478.301     0.771     0.760  70.7
       186   1020.728    550.787     9.396     2.562  62.7
       187   1372.076    485.724     0.667     0.642  60.9
       188   1692.714    519.537     4.839     0.506 -48.4
       189   1548.328    489.435     0.626     0.612 -21.6
       190   1412.300    543.228    15.508     1.294  28.3
       191    695.642    491.843     0.515     0.511  34.5
       192   1982.124    510.815     3.246     0.489  21.7
       193   1449.535    503.268     0.602     0.567 -13.9
       194   1403.017    503.083     0.577     0.533 -47.5
       195   1281.929    503.052     0.342     0.329  74.5
       196    521.249    506.809     0.506     0.476 -87.5
       197   1707.994    512.097     0.850     0.746 -44.1
       198    115.814    511.675     0.845     0.800  53.9
       199   1333.905    509.515     0.605     0.598  88.4
       200   1626.347    522.476     1.777     0.725  50.6
       201    653.377    513.558     1.660     0.280 -49.3
       202    650.663    519.126     1.199     0.198 -68.7
       203   1926.389    557.074     6.135     0.657  49.5
       204   1393.904    526.846     0.885     0.853  -0.4
       205     97.346    525.679     0.616     0.596 -52.5
       206   1476.846    545.968     1.438     1.156  53.3
       207   1226.480    532.334     0.624     0.542  82.5
       208    532.007    536.595     0.664     0.634  70.7
       209   1161.312    538.283     0.680     0.515  46.1
       210     70.104    536.611     0.495     0.292  77.7
       211   1556.427    548.356     0.706     0.662 -35.2
       212   1079.450    552.610     0.877     0.802 -41.7
       213   1719.533    602.273    10.525     2.239 -41.0
       214   1093.349    551.357     0.688     0.316 -37.1
       215    240.496    558.500     0.801     0.785 -46.2
       216    534.494    554.006     0.613     0.603 -48.6
       217    245.869    554.232     0.448     0.398  80.8
       218    196.602    573.365     2.200     0.876  39.5
       219    920.475    571.814     2.400     0.657 -18.1
       220   1207.112    570.318     0.662     0.648   3.9
       221   1864.106    579.424     1.171     0.824   1.9
       222    164.010    578.828     0.786     0.708  56.9
       223   2032.540    597.383     2.798     0.678  65.2
       224     80.543    583.321     1.003     0.875  56.1
       225   1178.376    580.299     0.729     0.713 -53.8
       226   1042.132    576.152     1.389     0.099  44.8
       227    712.330    581.670     0.823     0.811   8.0
       228    948.396    588.471     1.821     0.696  36.6
       229   1175.007    587.482     0.691     0.505 -44.7
       230    731.020    585.432     0.510     0.465  78.9
       231    849.056    594.210     3.389     1.098  -4.2
       232    194.797    591.669     0.545     0.499 -19.1
       233   1662.619    594.762     0.512     0.480 -30.7
       234    388.152    596.012     1.502     0.675  15.9
       235    370.539    595.573     0.784     0.699  36.3
       236    107.400    607.463     0.784     0.720 -61.1
       237   1178.440    609.896     0.677     0.605  81.0
       238   1262.582    616.128     7.784     0.542   3.1
       239   1551.524    610.043     0.639     0.526  78.7
       240   1774.564    610.273     0.619     0.558 -19.3
       241     88.965    613.330     0.470     0.287 -88.8
       242    502.599    616.584     0.519     0.495  50.1
       243   1547.523    632.812     4.658     0.907  -4.6
       244   1442.416    631.473     4.538     0.462  23.0
       245    707.728    628.467     2.371     0.917  15.6
       246   1835.298    648.632     3.416     1.049  81.2
       247    125.079    643.012     1.613     0.553 -63.8
       248   1058.101    635.284     0.603     0.559 -81.7
       249    771.319    641.541     0.914     0.831 -51.2
       250   1504.387    657.059     8.466     0.594  16.8
       251     18.430    644.989     0.866     0.505 -17.9
       252     84.844    651.234     0.914     0.824 -58.8
       253   1192.651    647.264     0.667     0.651 -69.6
       254      2.345    644.944     0.497     0.464   1.2
       255   1333.060    670.467     5.172     1.265  26.9
       256   1238.429    672.006     6.203     1.092  23.9
       257   1827.302    649.117     0.606     0.582  57.0
       258   1823.391    657.693     1.132     0.651  -1.2
       259   1353.275    655.100     0.583     0.291  17.0
       260    794.998    655.091     0.652     0.599  72.5
       261   1542.561    667.183     0.998     0.795  77.9
       262   1196.291    677.151    10.164     0.523 -12.4
       263   1970.902    666.620     1.181     0.483 -69.4
       264   1096.678    665.071     0.770     0.560 -57.8
       265    558.102    663.883     0.321     0.303  88.9
       266     99.411    676.496     6.697     0.544  -7.0
       267   1014.777    675.796     0.869     0.669  34.0
       268    336.545    684.802     1.687     0.762 -86.3
       269    114.532    670.989     0.725     0.307   0.7
       270    140.983    681.086     0.981     0.519 -76.5
       271   1495.305    685.651     4.268     0.790  -9.9
       272    894.522    686.059     1.184     0.783  13.5
       273   1638.351    691.599     0.878     0.791  62.4
       274   1153.942    681.452     0.498     0.234  89.6
       275    443.959    687.668     0.476     0.210 -88.5
       276   1352.681    689.093     0.475     0.344 -16.3
       277     11.169    745.801     9.196     0.398  45.6
       278   1215.698    696.069     0.680     0.648  78.6
       279    531.485    692.193     0.592     0.578  73.0
       280   1256.101    709.507     1.859     0.649 -87.0
       281   1917.637    698.928     1.033     0.552  51.9
       282   1416.854    694.174     0.398     0.380 -80.3
       283    729.010    702.245     3.961     0.507  16.7
       284   1228.617    706.917     4.325     0.645  -6.9
       285   1075.128    700.171     0.414     0.395 -45.0
       286    894.597    699.831     0.822     0.465  26.4
       287    205.039    752.297     7.581     0.652 -55.7
       288   1695.520    702.134     0.551     0.455  48.2
       289   1890.334    705.165     0.472     0.371   0.2
       290   1772.629    708.500     0.500     0.483 -90.0
       291   1795.815    729.507     2.193     0.967   8.8
       292   1591.402    729.393     0.887     0.738  82.6
       293    823.845    721.820     0.599     0.568  73.3
       294    210.396    737.053     1.195     0.800 -80.2
       295   1541.590    736.079     1.287     0.652 -30.8
       296    505.200    738.117     0.975     0.889 -50.2
       297    319.890    731.789     0.758     0.587  22.6
       298   1333.437    735.480     0.604     0.599 -52.5
       299   1095.373    742.771     5.230     0.533   0.7
       300    786.750    741.922     1.067     0.864 -32.4
       301    280.346    741.170     0.645     0.624  44.8
       302     41.278    739.000     0.533     0.297   0.0
       303    805.153    783.195     9.205     0.871 -31.1
       304   1184.718    745.285     0.730     0.667 -62.0
       305   1329.138    744.528     0.629     0.532  14.6
       306    917.957    760.232     3.650     0.971  14.8
       307   1110.919    762.782     2.660     0.567  42.0
       308   1042.448    761.613     2.695     1.113 -25.2
       309     50.745    753.587     1.833     0.492  60.0
       310   1201.322    747.554     0.506     0.458  63.9
       311   1028.757    772.989     2.789     0.904  30.9
       312    870.882    761.346     1.344     0.747   4.2
       313    948.032    760.781     0.484     0.415  73.9
       314    498.911    761.694     0.472     0.437 -73.6
       315    952.812    769.764     1.110     0.645 -76.4
       316    469.343    763.018     0.479     0.236   0.3
       317     37.034    776.327     1.028     0.849  22.5
       318   1222.759    780.823     0.661     0.612  77.4
       319   1535.944    782.820     0.723     0.681  -0.1
       320     88.727    781.009     1.085     0.262  -3.0
       321   1729.894    860.456     8.742     6.644  79.7
       322    923.699    800.973     1.578     0.598 -74.7
       323    834.041    784.846     0.578     0.569   8.7
       324   1784.489    821.368     8.359     0.517 -30.3
       325    355.106    786.621     0.493     0.389 -77.4
       326      8.382    902.519    12.934     3.708  80.0
       327   1650.173    794.821     0.651     0.597 -70.5
       328   1383.005    800.114     6.560     0.506  10.5
       329   1870.944    797.219     0.704     0.703  85.8
