#   1 NUMBER                 Running object number                                     
#   2 X_IMAGE                Object position along x                                    [pixel]
#   3 Y_IMAGE                Object position along y                                    [pixel]
#   4 A_IMAGE                Profile RMS along major axis                               [pixel]
#   5 B_IMAGE                Profile RMS along minor axis                               [pixel]
#   6 THETA_IMAGE            Position angle (CCW/x)                                     [deg]
         1    829.846     65.096    12.933     7.712  89.1
         2   1204.927     65.157    15.468     7.852 -10.3
         3   1920.799     32.978     3.825     0.991 -79.9
         4   1318.539     23.578     7.538     1.390 -27.1
         5    791.974     11.401     6.602     0.567 -51.3
         6   1526.739      8.638     3.994     0.836 -86.7
         7   1258.002      3.498     0.703     0.582  11.8
         8    524.591      3.019     0.626     0.319  -0.5
         9   1866.624      1.000   173.080     0.289   0.0
        10   1526.587     55.052     5.540     0.727 -88.7
        11    640.087     18.178     1.776     0.783  -1.5
        12    991.301     19.649     1.466     0.438 -71.9
        13     31.002     17.755     0.830     0.705 -89.5
        14    591.611     33.015     1.393     0.754  53.5
        15    565.331     25.313     0.581     0.565  -9.7
        16   1951.015     27.920     0.439     0.337 -88.3
        17    456.901     39.390     1.375     0.735  53.1
        18    237.000     33.058     0.446     0.432  90.0
        19     13.805     32.629     1.173     0.462   7.5
        20   1739.171     41.031     0.832     0.770  -7.1
        21   1796.289     43.589     6.169     0.475  -4.3
        22   1817.503     39.384     0.533     0.523  49.5
        23   1341.467     48.714     3.285     0.514 -24.5
        24   1879.752     46.662     0.679     0.635 -49.8
        25   1559.445     46.220     0.640     0.616 -83.6
        26   1501.906    100.005     9.945     1.191  42.0
        27    848.730     51.025     0.759     0.728 -70.4
        28    702.396     52.575     0.786     0.744 -41.7
        29    481.730     47.422     0.494     0.444  89.8
        30   1220.026     92.287     6.961     0.684 -40.3
        31   2039.335     59.077     0.774     0.657 -89.4
        32   1934.809    133.890    14.996     0.501  36.0
        33     32.396     55.947     0.675     0.616  26.2
        34   1160.506     68.131     0.811     0.785  52.4
        35    419.087     63.683     0.610     0.578 -50.9
        36   1465.291     69.693     0.866     0.836 -80.9
        37   1782.009     77.193     1.518     0.718 -62.6
        38   1060.929     80.836     1.696     0.872 -59.6
        39   1380.798     71.638     0.664     0.298 -63.1
        40    612.594     92.099     2.052     0.739 -66.1
        41    481.971     81.136     0.777     0.745   2.9
        42   1965.040     80.424     0.657     0.565   1.6
        43   1620.562     78.367     0.497     0.481  14.5
        44    437.850    100.878     4.385     0.733 -19.9
        45   1343.490    102.270     2.601     0.835  53.2
        46    469.150    109.007     2.829     0.925 -81.5
        47   1638.583     94.518     0.732     0.715  36.8
        48    747.837    107.036     1.337     1.217  29.8
        49   2039.885    100.543     0.676     0.318 -88.5
        50    391.529    180.550    10.829     1.810  69.0
        51   1909.466    106.670     0.869     0.614  45.1
        52    624.646    110.545     0.781     0.759  65.6
        53   1444.359    111.504     0.656     0.620  59.9
        54    592.083    111.020     0.408     0.328  19.4
        55   1949.854    115.982     0.456     0.321  -1.4
        56   1018.866    121.687     0.636     0.631   5.1
        57    853.417    131.826     1.368     0.785  35.6
        58    200.399    142.720     5.915     0.543 -18.1
        59    270.000    134.763     1.724     0.289  90.0
        60    564.932    127.764     0.460     0.423  82.3
        61   1176.940    196.585     9.314     0.504  53.1
        62     70.994    156.049     5.104     1.900  13.1
        63   2011.296    170.968     6.553     0.521 -36.1
        64    301.945    138.186     0.521     0.402 -88.0
        65   1423.190    196.889     9.864     0.666  42.8
        66   1202.823    226.111    11.243     1.091 -64.7
        67    682.332    155.740     0.668     0.524  62.7
        68     50.602    157.432     0.516     0.490  52.8
        69   1990.782    183.281     2.738     1.453 -64.9
        70   1171.752    168.177     1.234     0.693  -0.2
        71    370.349    174.351     0.968     0.862 -66.6
        72   1259.672    173.217     0.832     0.628 -63.5
        73    371.439    169.039     0.663     0.627  55.3
        74    926.997    176.070     0.697     0.687  70.8
        75    648.306    174.328     0.639     0.615 -45.6
        76    931.165    175.274     0.464     0.353  67.6
        77   1940.746    176.206     0.479     0.423  62.4
        78    363.130    189.239     1.157     0.730  87.9
        79   1971.589    235.941     8.687     1.038  55.3
        80    606.857    264.272     9.235     2.978 -87.7
        81    270.000    196.921     1.432     0.289  90.0
        82    411.743    210.105     2.139     0.525 -76.9
        83    766.924    218.221     2.790     2.037 -84.8
        84    963.163    197.307     0.673     0.667  32.0
        85   1901.836    194.308     1.173     0.461   1.1
        86   1941.047    208.926     1.345     0.478  70.5
        87   1340.150    214.242     1.180     0.683 -71.2
        88    379.993    210.211     2.188     0.374  -4.6
        89    888.004    215.358     0.760     0.748  87.2
        90     48.493    210.259     0.500     0.438   1.7
        91   1479.171    285.758    21.915     5.187 -13.5
        92    270.000    219.154     1.381     0.289  90.0
        93   1163.005    765.741    63.809     0.071  90.0
        94    658.996    221.552     1.298     0.638 -12.1
        95    670.509    245.861     4.207     0.526 -38.6
        96   1128.560    228.575     0.708     0.688  73.3
        97    178.682    239.951     0.688     0.652  52.0
        98    421.444    248.522     0.962     0.861 -11.7
        99   1445.164    239.299     0.458     0.370 -85.8
       100   1087.830    244.917     0.815     0.295 -72.3
       101    750.709    245.103     0.648     0.233  18.8
       102    759.174    246.636     1.109     0.472  -5.4
       103    516.366    265.048     1.262     0.946 -79.4
       104   1533.761    260.247     0.750     0.737  52.2
       105   1733.907    277.937     3.504     0.616 -71.9
       106    613.249    258.719     0.474     0.454 -81.0
       107   1004.727    338.663     8.819     0.600 -60.6
       108    664.622    277.931     2.748     0.505  64.4
       109    530.229    281.912     0.856     0.842  50.7
       110   1861.765    282.702     0.578     0.566 -38.5
       111    666.302    287.856     1.122     0.495  46.2
       112    285.129    293.191     0.655     0.651 -20.8
       113    735.474    330.832     5.151     1.222 -80.8
       114   1957.640    306.723     1.100     0.950 -41.8
       115   1510.215    303.836     0.821     0.800 -60.5
       116   1245.979    298.979     0.444     0.420 -88.8
       117   1399.402    304.259     0.644     0.571 -34.1
       118   1926.695    313.535     1.679     1.116 -18.3
       119    930.115    359.446     9.543     1.111 -55.9
       120    385.780    311.798     0.440     0.410  69.3
       121    778.338    348.583     6.359     1.044  34.2
       122    816.296    324.868     1.027     0.760  40.5
       123    666.508    324.953     0.893     0.799  35.5
       124   1492.039    326.282     2.814     0.538  13.2
       125   1347.156    326.211     0.624     0.612  66.4
       126   1633.271    348.197     2.444     0.707  63.0
       127    623.494    335.097     0.760     0.731  56.2
       128   1113.152    331.934     1.314     0.526  14.4
       129   1713.396    371.763     4.593     0.938  75.7
       130   2021.898    333.965     0.419     0.385  -1.5
       131    421.620    336.563     0.514     0.510  48.9
       132      8.560    351.385     1.990     1.451   1.0
       133    382.722    337.095     0.448     0.293   0.3
       134   1848.642    421.021    11.751     2.344 -63.5
       135    423.614    347.197     1.047     0.543  67.8
       136      6.023    374.744     4.522     0.919 -65.7
       137   1899.356    346.470     0.725     0.717 -82.2
       138   1456.251    346.126     0.493     0.479  43.4
       139   1367.079    353.210     0.801     0.794  16.4
       140    633.410    351.719     0.553     0.477 -64.5
       141      7.667    516.165    16.049     0.917  89.9
       142   1533.711    353.611     1.001     0.248  40.1
       143    231.558    365.574     0.842     0.808  90.0
       144    520.568    371.959     0.937     0.773  41.1
       145   1677.216    388.246     7.553     0.639 -22.0
       146   1532.528    422.278     6.853     2.561 -75.5
       147   1324.205    365.834     0.574     0.562  78.6
       148    586.571    374.837     0.888     0.820   5.0
       149    666.954    372.549     2.668     0.529  -5.6
       150   2001.400    433.879     7.311     0.571  67.8
       151   1048.393    403.274     3.255     0.579  65.3
       152    773.539    391.017     1.958     0.277 -56.8
       153    853.996    386.003     0.519     0.490  43.6
       154   1420.253    389.158     0.641     0.511 -69.2
       155   2015.562    397.116     2.233     0.683 -22.9
       156   1025.398    411.705     1.111     0.750  45.1
       157   1469.419    429.570     3.521     0.512 -66.7
       158   1878.224    411.461     0.679     0.663  71.8
       159    924.025    412.603     0.823     0.730 -56.0
       160    225.131    413.411     0.750     0.607  59.9
       161    340.907    414.730     0.622     0.590 -66.4
       162    926.939    458.745     4.148     3.194 -81.9
       163    388.882    436.968     1.825     0.953  65.5
       164   1956.313    429.618     1.397     0.694   1.7
       165    831.117    425.979     0.526     0.322  89.2
       166    794.816    426.986     0.621     0.343 -69.6
       167    511.700    429.964     0.493     0.437   6.6
       168    914.241    434.990     2.520     0.529   3.4
       169    527.269    442.438     1.027     0.742 -81.0
       170   1612.505    434.938     0.576     0.538 -73.7
       171   1601.696    470.720     3.601     0.860 -89.2
       172    257.964    447.262     0.926     0.841  -1.4
       173   1381.221    485.209     6.251     0.535  56.1
       174    412.604    445.652     0.785     0.634  73.3
       175    950.313    453.195     0.619     0.570 -67.4
       176   1584.233    454.437     0.724     0.717  56.4
       177   1687.562    482.234     6.483     0.574  22.9
       178    349.002    472.731     1.103     0.672 -89.3
       179   1764.487    469.575     0.796     0.786   5.7
       180   1982.186    467.224     0.670     0.663  76.3
       181    453.759    468.212     0.785     0.705 -45.5
       182   1955.765    472.732     0.750     0.720 -85.8
       183   1975.944    475.109     0.693     0.686 -58.8
       184     14.007    574.205    13.286     2.411  86.9
       185    835.921    482.565     0.969     0.950  56.6
       186    651.985    477.384     0.811     0.517  10.2
       187   1955.805    512.753    15.786     1.882  12.2
       188     62.803    482.172     1.012     0.375  -2.9
       189   1921.835    490.794     0.803     0.778 -52.5
       190    881.340    491.304     0.793     0.619 -50.4
       191    650.847    488.969     0.752     0.544  66.6
       192    992.142    501.380     3.364     0.519  22.8
       193   1258.504    499.610     3.232     0.538 -10.8
       194    908.662    497.886     0.968     0.580 -37.7
       195   1760.047    501.734     0.674     0.603  80.7
       196   1080.481    503.556     0.707     0.697   9.6
       197   1010.696    503.026     0.575     0.563   0.8
       198    559.833    546.172     9.548     1.357  28.2
       199   1158.572    546.297     5.211     0.549 -84.6
       200    340.315    508.102     0.465     0.340   0.4
       201    571.542    575.720    14.315     4.441  17.2
       202    639.733    516.859     0.665     0.646 -44.4
       203   1282.233    534.164     3.601     0.512 -47.7
       204   1619.291    518.069     0.669     0.654  46.2
       205   1298.142    518.670     0.736     0.688 -35.1
       206   2001.067    517.051     0.495     0.475 -87.3
       207    664.305    525.442     0.936     0.659  50.9
       208    628.515    528.346     1.463     0.895  -9.0
       209   1948.576    533.789     1.071     0.451 -67.3
       210    244.924    539.790     0.968     0.832  49.4
       211    226.386    534.700     0.545     0.387 -39.7
       212   1641.871    537.845     0.566     0.470  70.4
       213    971.406    550.250     0.887     0.715  79.9
       214   1344.687    558.449     0.918     0.851  73.1
       215    453.516    596.729     6.386     1.371  71.4
       216   1075.076    562.027     1.082     0.851  27.1
       217   1330.853    560.071     0.611     0.525  83.0
       218    102.448    560.657     0.602     0.511  67.8
       219   1662.990    562.877     0.575     0.563 -42.4
       220    220.580    572.990     0.843     0.821 -64.6
       221   1468.403    595.371     2.576     0.699  79.1
       222    806.267    579.260     2.400     0.535   8.4
       223    858.335    583.499     0.771     0.729  67.2
       224   1011.530    585.026     0.499     0.366  -2.6
       225    431.401    595.236     7.958     0.667  -2.9
       226   1308.877    590.519     0.783     0.736 -53.4
       227   1210.177    591.360     0.809     0.778  75.3
       228   1788.091    592.866     0.766     0.673  88.2
       229    137.437    612.297     5.815     0.975 -22.5
       230    474.741    638.876     8.150     1.594 -56.9
       231    760.934    607.106     6.853     0.706   9.2
       232   1372.793    620.111     4.177     1.102  30.2
       233   1813.950    601.901     1.102     0.620 -17.5
       234   1688.929    605.054     0.594     0.566  44.7
       235    660.661    608.185     0.807     0.718  -0.9
       236    545.854    608.542     0.833     0.657 -33.4
       237   1972.119    638.016     7.263     0.878 -28.6
       238    838.102    651.297     5.081     2.065  63.0
       239    964.957    645.123     7.239     1.314 -32.5
       240    342.551    616.443     0.500     0.494  41.3
       241    537.160    619.686     0.569     0.421 -44.5
       242   1175.821    627.662     1.264     0.733   2.9
       243   1221.140    641.707     2.907     2.007   4.8
       244   1504.281    626.763     0.815     0.627   5.1
       245   1380.443    674.803     8.076     0.941  74.5
       246   1466.981    639.660     1.268     0.538 -60.4
       247   1319.782    635.876     0.525     0.517  32.1
       248    811.748    634.380     0.562     0.491 -50.5
       249   1657.528    657.788     2.636     0.904  67.5
       250   1009.701    650.145     1.497     0.527  27.4
       251   1162.690    646.016     1.327     0.509 -19.6
       252   1706.914    659.112     1.726     0.886 -40.9
       253    347.444    677.293     5.368     0.922  41.0
       254    630.295    655.373     0.879     0.672  61.1
       255   1168.323    656.087     0.882     0.757 -62.4
       256   1282.411    703.821    18.408     1.598  17.9
       257   1119.735    659.953     0.697     0.683 -20.1
       258   1908.210    662.418     0.493     0.407 -88.0
       259    903.586    693.346     3.185     2.787 -19.9
       260   1221.959    672.799     1.002     0.850  20.4
       261   1449.105    671.046     0.776     0.756  52.2
       262    678.196    682.119     2.623     0.797 -25.8
       263    968.093    675.337     0.624     0.616  87.3
       264    531.977    675.316     0.538     0.436 -59.2
       265   1697.780    682.708     0.709     0.625  81.8
       266   1619.351    719.144    11.295     0.592  21.4
       267   1664.331    689.327     0.772     0.702  13.2
       268    430.421    689.246     0.675     0.655 -71.7
       269    201.454    693.430     0.624     0.611  89.1
       270   1660.460    700.987     1.084     0.778 -20.2
       271    102.305    710.728     2.893     1.255  16.2
       272   1467.330    703.782     1.504     0.403 -80.4
       273    651.966    700.758     0.448     0.385  87.0
       274     78.540    701.055     0.701     0.621 -27.1
       275   1032.190    722.547    10.595     1.882 -11.8
       276   1827.267    703.102     0.489     0.459 -30.1
       277    694.264    706.625     0.489     0.441 -88.3
       278   1633.294    713.552     6.919     0.496  -3.2
       279    446.663    709.688     0.511     0.505 -63.1
       280    451.254    720.077     0.780     0.668  72.8
       281   1772.589    708.590     0.520     0.462 -45.0
       282   1020.560    714.534     0.679     0.643 -22.9
       283    580.811    717.725     0.521     0.481  30.6
       284   1147.570    713.796     0.501     0.447   6.0
       285    914.074    717.407     0.571     0.540 -29.4
       286   1688.776    714.812     0.444     0.433 -42.7
       287    244.184    722.440     1.265     0.654  24.0
       288    302.135    750.960     3.377     1.396 -80.3
       289   1138.879    725.867     0.636     0.598  78.2
       290   1862.468    724.829     0.520     0.504 -12.1
       291    552.600    788.613     7.921     1.259  46.5
       292   1652.222    743.580     8.696     0.521   6.9
       293   1332.729    757.925     2.878     0.523 -59.8
       294   1435.246    744.866     0.850     0.789 -45.1
       295   1605.989    755.343     1.364     0.253  87.5
       296     93.978    765.181     1.935     0.908  48.0
       297   1312.623    779.338     4.343     0.637  53.5
       298   1091.093    757.421     0.796     0.456 -88.4
       299   1257.040    752.780     0.505     0.349  89.0
       300   1447.760    792.316     4.686     0.447 -86.9
       301   1356.213    788.788     9.476     0.561 -24.0
       302   1220.715    761.934     2.434     0.488 -12.0
       303   1024.312    758.114     0.463     0.317  -0.8
       304   1387.627    760.701     0.484     0.458   0.5
       305   1259.159    765.253     0.543     0.469  53.6
       306      2.674    772.127     1.339     0.639 -23.1
       307    813.267    773.676     0.740     0.681  -1.5
       308   1708.440    785.386     1.464     0.907 -88.9
       309    867.334    793.519     5.000     1.123  35.9
       310   1348.046    772.014     0.361     0.351   5.8
       311   1061.258    777.541     0.842     0.517 -23.6
       312   1275.681    794.509     4.518     0.919  30.4
       313   1989.751    799.426     2.894     1.101 -77.2
       314   1896.214    788.687     0.695     0.659 -87.9
       315     20.908    806.098     1.973     0.567 -73.8
       316   1858.824    791.076     0.381     0.314  -5.1
       317   1188.848    820.319     3.613     0.745 -51.7
       318    407.857    790.456     0.498     0.350 -88.7
       319   2000.329    808.423     2.260     0.420 -74.0
       320   1346.632    803.638     0.962     0.853  52.5
       321    184.305    902.824    13.788     1.048  69.4
       322   1932.851    826.169     3.697     2.295 -68.8
       323    839.571    815.575     3.137     1.270  18.5
       324    514.797    805.403     0.544     0.535  86.1
       325   1340.556    881.805     9.523     1.636 -42.7
       326   1089.881    807.167     0.434     0.236 -52.6
       327    993.567    812.211     0.557     0.537 -59.6
       328    449.630    835.449     6.718     0.982 -18.2
       329   1402.434    821.538     1.057     0.779  53.3
